# 4 FEB 2015 - B.L. de Vries
# Bialystok, HOW, Sample 2, Take 1
# m = 2,4 mgr, KBr = 580 mgr
# Signal = 7800
# Resolution / sample scan time / bg scan time / range = 4 / 64 / 64 / 4000-300
# Source: glow-bar, Machine: Equinox 55, DTGS
# k(cm-1), absorbance3996.41355,0.64165
3994.48478,0.64139
3992.55601,0.64114
3990.62724,0.64083
3988.69847,0.64051
3986.76970,0.64021
3984.84093,0.63992
3982.91215,0.63962
3980.98338,0.63929
3979.05461,0.63897
3977.12584,0.63866
3975.19707,0.63835
3973.26830,0.63806
3971.33953,0.63774
3969.41076,0.63741
3967.48199,0.63709
3965.55322,0.63679
3963.62444,0.63648
3961.69567,0.63618
3959.76690,0.63591
3957.83813,0.63563
3955.90936,0.63532
3953.98059,0.63500
3952.05182,0.63466
3950.12305,0.63433
3948.19428,0.63406
3946.26550,0.63376
3944.33673,0.63343
3942.40796,0.63320
3940.47919,0.63296
3938.55042,0.63262
3936.62165,0.63224
3934.69288,0.63186
3932.76411,0.63156
3930.83534,0.63133
3928.90657,0.63101
3926.97779,0.63064
3925.04902,0.63034
3923.12025,0.63005
3921.19148,0.62969
3919.26271,0.62937
3917.33394,0.62916
3915.40517,0.62892
3913.47640,0.62860
3911.54763,0.62824
3909.61886,0.62781
3907.69008,0.62731
3905.76131,0.62689
3903.83254,0.62665
3901.90377,0.62650
3899.97500,0.62638
3898.04623,0.62619
3896.11746,0.62576
3894.18869,0.62524
3892.25992,0.62496
3890.33115,0.62478
3888.40237,0.62437
3886.47360,0.62402
3884.54483,0.62383
3882.61606,0.62346
3880.68729,0.62317
3878.75852,0.62292
3876.82975,0.62244
3874.90098,0.62198
3872.97221,0.62159
3871.04344,0.62129
3869.11466,0.62116
3867.18589,0.62084
3865.25712,0.62045
3863.32835,0.62027
3861.39958,0.62003
3859.47081,0.61954
3857.54204,0.61880
3855.61327,0.61819
3853.68450,0.61840
3851.75572,0.61881
3849.82695,0.61847
3847.89818,0.61787
3845.96941,0.61734
3844.04064,0.61690
3842.11187,0.61649
3840.18310,0.61614
3838.25433,0.61603
3836.32556,0.61596
3834.39679,0.61564
3832.46801,0.61527
3830.53924,0.61492
3828.61047,0.61451
3826.68170,0.61413
3824.75293,0.61364
3822.82416,0.61319
3820.89539,0.61310
3818.96662,0.61289
3817.03785,0.61257
3815.10908,0.61250
3813.18030,0.61225
3811.25153,0.61169
3809.32276,0.61117
3807.39399,0.61090
3805.46522,0.61061
3803.53645,0.61015
3801.60768,0.60999
3799.67891,0.60990
3797.75014,0.60955
3795.82137,0.60926
3793.89259,0.60897
3791.96382,0.60861
3790.03505,0.60827
3788.10628,0.60791
3786.17751,0.60757
3784.24874,0.60728
3782.31997,0.60697
3780.39120,0.60671
3778.46243,0.60651
3776.53366,0.60620
3774.60488,0.60576
3772.67611,0.60532
3770.74734,0.60504
3768.81857,0.60487
3766.88980,0.60462
3764.96103,0.60433
3763.03226,0.60395
3761.10349,0.60355
3759.17472,0.60331
3757.24594,0.60303
3755.31717,0.60252
3753.38840,0.60201
3751.45963,0.60187
3749.53086,0.60185
3747.60209,0.60140
3745.67332,0.60105
3743.74455,0.60119
3741.81578,0.60102
3739.88701,0.60039
3737.95823,0.59987
3736.02946,0.59970
3734.10069,0.59968
3732.17192,0.59956
3730.24315,0.59921
3728.31438,0.59876
3726.38561,0.59842
3724.45684,0.59823
3722.52807,0.59807
3720.59930,0.59791
3718.67052,0.59770
3716.74175,0.59735
3714.81298,0.59690
3712.88421,0.59663
3710.95544,0.59669
3709.02667,0.59671
3707.09790,0.59648
3705.16913,0.59614
3703.24036,0.59597
3701.31159,0.59601
3699.38281,0.59599
3697.45404,0.59588
3695.52527,0.59579
3693.59650,0.59571
3691.66773,0.59576
3689.73896,0.59621
3687.81019,0.59674
3685.88142,0.59687
3683.95265,0.59682
3682.02388,0.59685
3680.09510,0.59683
3678.16633,0.59665
3676.23756,0.59667
3674.30879,0.59671
3672.38002,0.59637
3670.45125,0.59624
3668.52248,0.59640
3666.59371,0.59633
3664.66494,0.59619
3662.73617,0.59621
3660.80739,0.59628
3658.87862,0.59633
3656.94985,0.59657
3655.02108,0.59687
3653.09231,0.59686
3651.16354,0.59699
3649.23477,0.59772
3647.30600,0.59853
3645.37723,0.59893
3643.44845,0.59917
3641.51968,0.59953
3639.59091,0.60001
3637.66214,0.60053
3635.73337,0.60111
3633.80460,0.60167
3631.87583,0.60214
3629.94706,0.60303
3628.01829,0.60451
3626.08952,0.60553
3624.16074,0.60611
3622.23197,0.60680
3620.30320,0.60784
3618.37443,0.60918
3616.44566,0.61032
3614.51689,0.61133
3612.58812,0.61249
3610.65935,0.61373
3608.73058,0.61512
3606.80181,0.61657
3604.87303,0.61781
3602.94426,0.61897
3601.01549,0.62030
3599.08672,0.62168
3597.15795,0.62304
3595.22918,0.62449
3593.30041,0.62595
3591.37164,0.62719
3589.44287,0.62845
3587.51410,0.63011
3585.58532,0.63179
3583.65655,0.63313
3581.72778,0.63435
3579.79901,0.63561
3577.87024,0.63689
3575.94147,0.63815
3574.01270,0.63939
3572.08393,0.64051
3570.15516,0.64153
3568.22639,0.64275
3566.29761,0.64425
3564.36884,0.64553
3562.44007,0.64658
3560.51130,0.64764
3558.58253,0.64873
3556.65376,0.64979
3554.72499,0.65087
3552.79622,0.65205
3550.86745,0.65320
3548.93867,0.65425
3547.00990,0.65538
3545.08113,0.65664
3543.15236,0.65783
3541.22359,0.65891
3539.29482,0.65999
3537.36605,0.66116
3535.43728,0.66240
3533.50851,0.66359
3531.57974,0.66474
3529.65096,0.66592
3527.72219,0.66715
3525.79342,0.66839
3523.86465,0.66965
3521.93588,0.67091
3520.00711,0.67213
3518.07834,0.67331
3516.14957,0.67446
3514.22080,0.67561
3512.29203,0.67678
3510.36325,0.67798
3508.43448,0.67912
3506.50571,0.68019
3504.57694,0.68129
3502.64817,0.68245
3500.71940,0.68353
3498.79063,0.68451
3496.86186,0.68548
3494.93309,0.68645
3493.00432,0.68740
3491.07554,0.68834
3489.14677,0.68930
3487.21800,0.69024
3485.28923,0.69116
3483.36046,0.69205
3481.43169,0.69295
3479.50292,0.69383
3477.57415,0.69468
3475.64538,0.69555
3473.71661,0.69644
3471.78783,0.69730
3469.85906,0.69812
3467.93029,0.69896
3466.00152,0.69978
3464.07275,0.70056
3462.14398,0.70135
3460.21521,0.70212
3458.28644,0.70286
3456.35767,0.70354
3454.42889,0.70420
3452.50012,0.70482
3450.57135,0.70538
3448.64258,0.70591
3446.71381,0.70641
3444.78504,0.70680
3442.85627,0.70710
3440.92750,0.70738
3438.99873,0.70760
3437.06996,0.70773
3435.14118,0.70776
3433.21241,0.70771
3431.28364,0.70758
3429.35487,0.70738
3427.42610,0.70711
3425.49733,0.70678
3423.56856,0.70639
3421.63979,0.70596
3419.71102,0.70545
3417.78225,0.70487
3415.85347,0.70422
3413.92470,0.70354
3411.99593,0.70281
3410.06716,0.70204
3408.13839,0.70120
3406.20962,0.70032
3404.28085,0.69942
3402.35208,0.69848
3400.42331,0.69750
3398.49454,0.69649
3396.56576,0.69544
3394.63699,0.69432
3392.70822,0.69314
3390.77945,0.69192
3388.85068,0.69066
3386.92191,0.68934
3384.99314,0.68794
3383.06437,0.68645
3381.13560,0.68487
3379.20683,0.68320
3377.27805,0.68146
3375.34928,0.67964
3373.42051,0.67776
3371.49174,0.67582
3369.56297,0.67383
3367.63420,0.67183
3365.70543,0.66984
3363.77666,0.66783
3361.84789,0.66580
3359.91912,0.66379
3357.99034,0.66183
3356.06157,0.65991
3354.13280,0.65800
3352.20403,0.65611
3350.27526,0.65429
3348.34649,0.65254
3346.41772,0.65080
3344.48895,0.64907
3342.56018,0.64736
3340.63140,0.64567
3338.70263,0.64403
3336.77386,0.64245
3334.84509,0.64091
3332.91632,0.63939
3330.98755,0.63787
3329.05878,0.63637
3327.13001,0.63490
3325.20124,0.63348
3323.27247,0.63212
3321.34369,0.63077
3319.41492,0.62943
3317.48615,0.62813
3315.55738,0.62687
3313.62861,0.62563
3311.69984,0.62438
3309.77107,0.62314
3307.84230,0.62193
3305.91353,0.62078
3303.98476,0.61972
3302.05598,0.61869
3300.12721,0.61764
3298.19844,0.61658
3296.26967,0.61553
3294.34090,0.61453
3292.41213,0.61356
3290.48336,0.61266
3288.55459,0.61179
3286.62582,0.61088
3284.69705,0.60997
3282.76827,0.60911
3280.83950,0.60827
3278.91073,0.60742
3276.98196,0.60656
3275.05319,0.60570
3273.12442,0.60484
3271.19565,0.60399
3269.26688,0.60318
3267.33811,0.60241
3265.40934,0.60162
3263.48056,0.60079
3261.55179,0.59993
3259.62302,0.59906
3257.69425,0.59816
3255.76548,0.59727
3253.83671,0.59639
3251.90794,0.59547
3249.97917,0.59450
3248.05040,0.59352
3246.12162,0.59255
3244.19285,0.59160
3242.26408,0.59061
3240.33531,0.58960
3238.40654,0.58856
3236.47777,0.58751
3234.54900,0.58647
3232.62023,0.58546
3230.69146,0.58446
3228.76269,0.58344
3226.83391,0.58242
3224.90514,0.58140
3222.97637,0.58037
3221.04760,0.57935
3219.11883,0.57834
3217.19006,0.57734
3215.26129,0.57632
3213.33252,0.57529
3211.40375,0.57428
3209.47498,0.57330
3207.54620,0.57230
3205.61743,0.57130
3203.68866,0.57029
3201.75989,0.56929
3199.83112,0.56829
3197.90235,0.56727
3195.97358,0.56624
3194.04481,0.56522
3192.11604,0.56422
3190.18727,0.56323
3188.25849,0.56226
3186.32972,0.56129
3184.40095,0.56034
3182.47218,0.55940
3180.54341,0.55845
3178.61464,0.55751
3176.68587,0.55656
3174.75710,0.55562
3172.82833,0.55471
3170.89956,0.55382
3168.97078,0.55292
3167.04201,0.55204
3165.11324,0.55117
3163.18447,0.55031
3161.25570,0.54945
3159.32693,0.54861
3157.39816,0.54776
3155.46939,0.54689
3153.54062,0.54601
3151.61185,0.54519
3149.68307,0.54443
3147.75430,0.54367
3145.82553,0.54288
3143.89676,0.54209
3141.96799,0.54129
3140.03922,0.54048
3138.11045,0.53971
3136.18168,0.53899
3134.25291,0.53826
3132.32413,0.53751
3130.39536,0.53676
3128.46659,0.53604
3126.53782,0.53532
3124.60905,0.53457
3122.68028,0.53380
3120.75151,0.53303
3118.82274,0.53228
3116.89397,0.53155
3114.96520,0.53089
3113.03642,0.53025
3111.10765,0.52957
3109.17888,0.52886
3107.25011,0.52819
3105.32134,0.52753
3103.39257,0.52685
3101.46380,0.52615
3099.53503,0.52547
3097.60626,0.52482
3095.67749,0.52415
3093.74871,0.52347
3091.81994,0.52278
3089.89117,0.52211
3087.96240,0.52146
3086.03363,0.52081
3084.10486,0.52016
3082.17609,0.51950
3080.24732,0.51885
3078.31855,0.51824
3076.38978,0.51770
3074.46100,0.51715
3072.53223,0.51657
3070.60346,0.51595
3068.67469,0.51532
3066.74592,0.51472
3064.81715,0.51417
3062.88838,0.51363
3060.95961,0.51307
3059.03084,0.51251
3057.10207,0.51196
3055.17329,0.51144
3053.24452,0.51094
3051.31575,0.51046
3049.38698,0.51000
3047.45821,0.50953
3045.52944,0.50906
3043.60067,0.50864
3041.67190,0.50829
3039.74313,0.50800
3037.81435,0.50773
3035.88558,0.50747
3033.95681,0.50725
3032.02804,0.50712
3030.09927,0.50706
3028.17050,0.50705
3026.24173,0.50709
3024.31296,0.50721
3022.38419,0.50740
3020.45542,0.50767
3018.52664,0.50801
3016.59787,0.50843
3014.66910,0.50894
3012.74033,0.50954
3010.81156,0.51025
3008.88279,0.51099
3006.95402,0.51170
3005.02525,0.51236
3003.09648,0.51300
3001.16771,0.51362
2999.23893,0.51420
2997.31016,0.51476
2995.38139,0.51530
2993.45262,0.51580
2991.52385,0.51630
2989.59508,0.51679
2987.66631,0.51723
2985.73754,0.51759
2983.80877,0.51788
2981.88000,0.51812
2979.95122,0.51834
2978.02245,0.51857
2976.09368,0.51885
2974.16491,0.51925
2972.23614,0.51988
2970.30737,0.52078
2968.37860,0.52194
2966.44983,0.52329
2964.52106,0.52469
2962.59229,0.52601
2960.66351,0.52709
2958.73474,0.52781
2956.80597,0.52816
2954.87720,0.52816
2952.94843,0.52788
2951.01966,0.52737
2949.09089,0.52669
2947.16212,0.52599
2945.23335,0.52554
2943.30457,0.52558
2941.37580,0.52619
2939.44703,0.52733
2937.51826,0.52888
2935.58949,0.53073
2933.66072,0.53272
2931.73195,0.53469
2929.80318,0.53644
2927.87441,0.53777
2925.94564,0.53846
2924.01686,0.53840
2922.08809,0.53756
2920.15932,0.53588
2918.23055,0.53321
2916.30178,0.52953
2914.37301,0.52517
2912.44424,0.52074
2910.51547,0.51673
2908.58670,0.51325
2906.65793,0.51019
2904.72915,0.50743
2902.80038,0.50489
2900.87161,0.50251
2898.94284,0.50027
2897.01407,0.49817
2895.08530,0.49623
2893.15653,0.49445
2891.22776,0.49286
2889.29899,0.49146
2887.37022,0.49027
2885.44144,0.48931
2883.51267,0.48857
2881.58390,0.48805
2879.65513,0.48771
2877.72636,0.48749
2875.79759,0.48731
2873.86882,0.48710
2871.94005,0.48680
2870.01128,0.48632
2868.08251,0.48562
2866.15373,0.48482
2864.22496,0.48414
2862.29619,0.48385
2860.36742,0.48413
2858.43865,0.48487
2856.50988,0.48570
2854.58111,0.48615
2852.65234,0.48588
2850.72357,0.48466
2848.79480,0.48242
2846.86602,0.47953
2844.93725,0.47662
2843.00848,0.47411
2841.07971,0.47197
2839.15094,0.47003
2837.22217,0.46817
2835.29340,0.46633
2833.36463,0.46452
2831.43586,0.46286
2829.50708,0.46142
2827.57831,0.46019
2825.64954,0.45915
2823.72077,0.45823
2821.79200,0.45741
2819.86323,0.45667
2817.93446,0.45597
2816.00569,0.45529
2814.07692,0.45463
2812.14815,0.45398
2810.21937,0.45335
2808.29060,0.45275
2806.36183,0.45214
2804.43306,0.45154
2802.50429,0.45095
2800.57552,0.45038
2798.64675,0.44982
2796.71798,0.44929
2794.78921,0.44877
2792.86044,0.44824
2790.93166,0.44772
2789.00289,0.44721
2787.07412,0.44671
2785.14535,0.44621
2783.21658,0.44572
2781.28781,0.44523
2779.35904,0.44474
2777.43027,0.44426
2775.50150,0.44377
2773.57273,0.44330
2771.64395,0.44284
2769.71518,0.44239
2767.78641,0.44194
2765.85764,0.44149
2763.92887,0.44104
2762.00010,0.44059
2760.07133,0.44014
2758.14256,0.43971
2756.21379,0.43929
2754.28502,0.43886
2752.35624,0.43844
2750.42747,0.43802
2748.49870,0.43759
2746.56993,0.43717
2744.64116,0.43676
2742.71239,0.43635
2740.78362,0.43595
2738.85485,0.43554
2736.92608,0.43512
2734.99730,0.43469
2733.06853,0.43427
2731.13976,0.43385
2729.21099,0.43343
2727.28222,0.43299
2725.35345,0.43255
2723.42468,0.43210
2721.49591,0.43163
2719.56714,0.43116
2717.63837,0.43070
2715.70959,0.43022
2713.78082,0.42975
2711.85205,0.42927
2709.92328,0.42880
2707.99451,0.42834
2706.06574,0.42790
2704.13697,0.42745
2702.20820,0.42701
2700.27943,0.42658
2698.35066,0.42615
2696.42188,0.42572
2694.49311,0.42530
2692.56434,0.42488
2690.63557,0.42447
2688.70680,0.42404
2686.77803,0.42363
2684.84926,0.42322
2682.92049,0.42281
2680.99172,0.42240
2679.06295,0.42199
2677.13417,0.42160
2675.20540,0.42120
2673.27663,0.42080
2671.34786,0.42040
2669.41909,0.42000
2667.49032,0.41960
2665.56155,0.41919
2663.63278,0.41879
2661.70401,0.41838
2659.77524,0.41796
2657.84646,0.41755
2655.91769,0.41716
2653.98892,0.41677
2652.06015,0.41638
2650.13138,0.41598
2648.20261,0.41556
2646.27384,0.41514
2644.34507,0.41473
2642.41630,0.41432
2640.48752,0.41391
2638.55875,0.41351
2636.62998,0.41311
2634.70121,0.41271
2632.77244,0.41231
2630.84367,0.41191
2628.91490,0.41150
2626.98613,0.41110
2625.05736,0.41070
2623.12859,0.41029
2621.19981,0.40988
2619.27104,0.40949
2617.34227,0.40910
2615.41350,0.40871
2613.48473,0.40831
2611.55596,0.40792
2609.62719,0.40753
2607.69842,0.40714
2605.76965,0.40676
2603.84088,0.40636
2601.91210,0.40596
2599.98333,0.40556
2598.05456,0.40517
2596.12579,0.40478
2594.19702,0.40439
2592.26825,0.40401
2590.33948,0.40363
2588.41071,0.40325
2586.48194,0.40288
2584.55317,0.40250
2582.62439,0.40212
2580.69562,0.40174
2578.76685,0.40136
2576.83808,0.40100
2574.90931,0.40063
2572.98054,0.40027
2571.05177,0.39990
2569.12300,0.39952
2567.19423,0.39916
2565.26546,0.39879
2563.33668,0.39843
2561.40791,0.39807
2559.47914,0.39772
2557.55037,0.39735
2555.62160,0.39698
2553.69283,0.39660
2551.76406,0.39621
2549.83529,0.39582
2547.90652,0.39542
2545.97775,0.39501
2544.04897,0.39462
2542.12020,0.39422
2540.19143,0.39381
2538.26266,0.39340
2536.33389,0.39301
2534.40512,0.39263
2532.47635,0.39224
2530.54758,0.39186
2528.61881,0.39148
2526.69003,0.39110
2524.76126,0.39072
2522.83249,0.39033
2520.90372,0.38995
2518.97495,0.38958
2517.04618,0.38919
2515.11741,0.38880
2513.18864,0.38842
2511.25987,0.38805
2509.33110,0.38769
2507.40232,0.38732
2505.47355,0.38695
2503.54478,0.38658
2501.61601,0.38622
2499.68724,0.38584
2497.75847,0.38547
2495.82970,0.38509
2493.90093,0.38472
2491.97216,0.38435
2490.04339,0.38397
2488.11461,0.38359
2486.18584,0.38322
2484.25707,0.38284
2482.32830,0.38248
2480.39953,0.38211
2478.47076,0.38174
2476.54199,0.38137
2474.61322,0.38099
2472.68445,0.38062
2470.75568,0.38026
2468.82690,0.37991
2466.89813,0.37954
2464.96936,0.37917
2463.04059,0.37881
2461.11182,0.37845
2459.18305,0.37808
2457.25428,0.37771
2455.32551,0.37735
2453.39674,0.37700
2451.46797,0.37664
2449.53919,0.37628
2447.61042,0.37591
2445.68165,0.37555
2443.75288,0.37520
2441.82411,0.37485
2439.89534,0.37450
2437.96657,0.37414
2436.03780,0.37379
2434.10903,0.37344
2432.18025,0.37309
2430.25148,0.37275
2428.32271,0.37240
2426.39394,0.37205
2424.46517,0.37169
2422.53640,0.37133
2420.60763,0.37097
2418.67886,0.37063
2416.75009,0.37028
2414.82132,0.36992
2412.89254,0.36956
2410.96377,0.36921
2409.03500,0.36886
2407.10623,0.36852
2405.17746,0.36817
2403.24869,0.36781
2401.31992,0.36746
2399.39115,0.36711
2397.46238,0.36677
2395.53361,0.36642
2393.60483,0.36607
2391.67606,0.36572
2389.74729,0.36537
2387.81852,0.36501
2385.88975,0.36466
2383.96098,0.36429
2382.03221,0.36391
2380.10344,0.36352
2378.17467,0.36313
2376.24590,0.36273
2374.31712,0.36233
2372.38835,0.36190
2370.45958,0.36147
2368.53081,0.36104
2366.60204,0.36060
2364.67327,0.36017
2362.74450,0.35975
2360.81573,0.35933
2358.88696,0.35896
2356.95819,0.35873
2355.02941,0.35858
2353.10064,0.35842
2351.17187,0.35820
2349.24310,0.35789
2347.31433,0.35753
2345.38556,0.35716
2343.45679,0.35682
2341.52802,0.35656
2339.59925,0.35631
2337.67048,0.35601
2335.74170,0.35561
2333.81293,0.35515
2331.88416,0.35474
2329.95539,0.35439
2328.02662,0.35407
2326.09785,0.35376
2324.16908,0.35347
2322.24031,0.35319
2320.31154,0.35291
2318.38276,0.35262
2316.45399,0.35231
2314.52522,0.35199
2312.59645,0.35166
2310.66768,0.35135
2308.73891,0.35105
2306.81014,0.35074
2304.88137,0.35042
2302.95260,0.35010
2301.02383,0.34976
2299.09505,0.34942
2297.16628,0.34909
2295.23751,0.34876
2293.30874,0.34843
2291.37997,0.34811
2289.45120,0.34780
2287.52243,0.34747
2285.59366,0.34712
2283.66489,0.34679
2281.73612,0.34646
2279.80734,0.34613
2277.87857,0.34580
2275.94980,0.34546
2274.02103,0.34513
2272.09226,0.34480
2270.16349,0.34446
2268.23472,0.34414
2266.30595,0.34382
2264.37718,0.34349
2262.44841,0.34316
2260.51963,0.34283
2258.59086,0.34251
2256.66209,0.34219
2254.73332,0.34186
2252.80455,0.34154
2250.87578,0.34122
2248.94701,0.34089
2247.01824,0.34056
2245.08947,0.34023
2243.16070,0.33991
2241.23192,0.33960
2239.30315,0.33928
2237.37438,0.33896
2235.44561,0.33864
2233.51684,0.33832
2231.58807,0.33801
2229.65930,0.33769
2227.73053,0.33738
2225.80176,0.33707
2223.87298,0.33675
2221.94421,0.33642
2220.01544,0.33610
2218.08667,0.33578
2216.15790,0.33547
2214.22913,0.33516
2212.30036,0.33485
2210.37159,0.33454
2208.44282,0.33424
2206.51405,0.33394
2204.58527,0.33364
2202.65650,0.33334
2200.72773,0.33304
2198.79896,0.33274
2196.87019,0.33245
2194.94142,0.33215
2193.01265,0.33184
2191.08388,0.33154
2189.15511,0.33124
2187.22634,0.33096
2185.29756,0.33067
2183.36879,0.33038
2181.44002,0.33010
2179.51125,0.32981
2177.58248,0.32952
2175.65371,0.32924
2173.72494,0.32896
2171.79617,0.32869
2169.86740,0.32841
2167.93863,0.32813
2166.00985,0.32784
2164.08108,0.32756
2162.15231,0.32729
2160.22354,0.32701
2158.29477,0.32673
2156.36600,0.32645
2154.43723,0.32618
2152.50846,0.32590
2150.57969,0.32563
2148.65092,0.32536
2146.72214,0.32509
2144.79337,0.32482
2142.86460,0.32454
2140.93583,0.32427
2139.00706,0.32399
2137.07829,0.32372
2135.14952,0.32345
2133.22075,0.32318
2131.29198,0.32291
2129.36320,0.32263
2127.43443,0.32235
2125.50566,0.32207
2123.57689,0.32179
2121.64812,0.32152
2119.71935,0.32125
2117.79058,0.32098
2115.86181,0.32071
2113.93304,0.32044
2112.00427,0.32017
2110.07549,0.31989
2108.14672,0.31961
2106.21795,0.31934
2104.28918,0.31908
2102.36041,0.31882
2100.43164,0.31856
2098.50287,0.31830
2096.57410,0.31804
2094.64533,0.31779
2092.71656,0.31754
2090.78778,0.31729
2088.85901,0.31704
2086.93024,0.31679
2085.00147,0.31654
2083.07270,0.31629
2081.14393,0.31604
2079.21516,0.31579
2077.28639,0.31553
2075.35762,0.31528
2073.42885,0.31502
2071.50007,0.31475
2069.57130,0.31448
2067.64253,0.31422
2065.71376,0.31395
2063.78499,0.31368
2061.85622,0.31341
2059.92745,0.31314
2057.99868,0.31286
2056.06991,0.31259
2054.14114,0.31232
2052.21236,0.31205
2050.28359,0.31179
2048.35482,0.31152
2046.42605,0.31125
2044.49728,0.31099
2042.56851,0.31075
2040.63974,0.31050
2038.71097,0.31025
2036.78220,0.31000
2034.85343,0.30977
2032.92465,0.30953
2030.99588,0.30929
2029.06711,0.30906
2027.13834,0.30884
2025.20957,0.30862
2023.28080,0.30839
2021.35203,0.30815
2019.42326,0.30792
2017.49449,0.30768
2015.56571,0.30744
2013.63694,0.30719
2011.70817,0.30695
2009.77940,0.30669
2007.85063,0.30642
2005.92186,0.30615
2003.99309,0.30587
2002.06432,0.30559
2000.13555,0.30531
1998.20678,0.30503
1996.27800,0.30475
1994.34923,0.30447
1992.42046,0.30419
1990.49169,0.30392
1988.56292,0.30365
1986.63415,0.30338
1984.70538,0.30311
1982.77661,0.30285
1980.84784,0.30260
1978.91907,0.30235
1976.99029,0.30210
1975.06152,0.30185
1973.13275,0.30159
1971.20398,0.30133
1969.27521,0.30108
1967.34644,0.30083
1965.41767,0.30057
1963.48890,0.30031
1961.56013,0.30006
1959.63136,0.29981
1957.70258,0.29956
1955.77381,0.29930
1953.84504,0.29905
1951.91627,0.29880
1949.98750,0.29857
1948.05873,0.29833
1946.12996,0.29810
1944.20119,0.29788
1942.27242,0.29764
1940.34365,0.29740
1938.41487,0.29716
1936.48610,0.29692
1934.55733,0.29667
1932.62856,0.29642
1930.69979,0.29615
1928.77102,0.29589
1926.84225,0.29562
1924.91348,0.29535
1922.98471,0.29508
1921.05593,0.29481
1919.12716,0.29455
1917.19839,0.29429
1915.26962,0.29405
1913.34085,0.29381
1911.41208,0.29358
1909.48331,0.29333
1907.55454,0.29309
1905.62577,0.29284
1903.69700,0.29261
1901.76822,0.29237
1899.83945,0.29211
1897.91068,0.29186
1895.98191,0.29161
1894.05314,0.29136
1892.12437,0.29111
1890.19560,0.29085
1888.26683,0.29059
1886.33806,0.29033
1884.40929,0.29009
1882.48051,0.28985
1880.55174,0.28961
1878.62297,0.28938
1876.69420,0.28915
1874.76543,0.28894
1872.83666,0.28873
1870.90789,0.28854
1868.97912,0.28836
1867.05035,0.28818
1865.12158,0.28801
1863.19280,0.28785
1861.26403,0.28771
1859.33526,0.28758
1857.40649,0.28746
1855.47772,0.28735
1853.54895,0.28723
1851.62018,0.28713
1849.69141,0.28704
1847.76264,0.28695
1845.83387,0.28687
1843.90509,0.28679
1841.97632,0.28672
1840.04755,0.28666
1838.11878,0.28660
1836.19001,0.28654
1834.26124,0.28647
1832.33247,0.28641
1830.40370,0.28636
1828.47493,0.28630
1826.54615,0.28626
1824.61738,0.28622
1822.68861,0.28617
1820.75984,0.28613
1818.83107,0.28611
1816.90230,0.28611
1814.97353,0.28614
1813.04476,0.28620
1811.11599,0.28630
1809.18722,0.28645
1807.25844,0.28663
1805.32967,0.28687
1803.40090,0.28717
1801.47213,0.28757
1799.54336,0.28807
1797.61459,0.28863
1795.68582,0.28926
1793.75705,0.29005
1791.82828,0.29112
1789.89951,0.29232
1787.97073,0.29359
1786.04196,0.29509
1784.11319,0.29684
1782.18442,0.29871
1780.25565,0.30066
1778.32688,0.30255
1776.39811,0.30422
1774.46934,0.30574
1772.54057,0.30721
1770.61180,0.30843
1768.68302,0.30929
1766.75425,0.30993
1764.82548,0.31040
1762.89671,0.31073
1760.96794,0.31093
1759.03917,0.31096
1757.11040,0.31085
1755.18163,0.31063
1753.25286,0.31034
1751.32409,0.30997
1749.39531,0.30958
1747.46654,0.30924
1745.53777,0.30899
1743.60900,0.30880
1741.68023,0.30866
1739.75146,0.30853
1737.82269,0.30841
1735.89392,0.30833
1733.96515,0.30836
1732.03638,0.30854
1730.10760,0.30887
1728.17883,0.30937
1726.25006,0.31002
1724.32129,0.31079
1722.39252,0.31163
1720.46375,0.31245
1718.53498,0.31337
1716.60621,0.31436
1714.67744,0.31509
1712.74866,0.31550
1710.81989,0.31565
1708.89112,0.31552
1706.96235,0.31514
1705.03358,0.31450
1703.10481,0.31376
1701.17604,0.31285
1699.24727,0.31173
1697.31850,0.31085
1695.38973,0.31016
1693.46095,0.30975
1691.53218,0.30977
1689.60341,0.31021
1687.67464,0.31107
1685.74587,0.31268
1683.81710,0.31563
1681.88833,0.31896
1679.95956,0.32220
1678.03079,0.32582
1676.10202,0.33026
1674.17324,0.33527
1672.24447,0.33979
1670.31570,0.34427
1668.38693,0.34887
1666.45816,0.35246
1664.52939,0.35540
1662.60062,0.35839
1660.67185,0.36105
1658.74308,0.36292
1656.81431,0.36415
1654.88553,0.36521
1652.95676,0.36671
1651.02799,0.36798
1649.09922,0.36867
1647.17045,0.36916
1645.24168,0.36922
1643.31291,0.36870
1641.38414,0.36763
1639.45537,0.36606
1637.52660,0.36394
1635.59782,0.36104
1633.66905,0.35814
1631.74028,0.35571
1629.81151,0.35308
1627.88274,0.35020
1625.95397,0.34759
1624.02520,0.34530
1622.09643,0.34333
1620.16766,0.34191
1618.23888,0.34062
1616.31011,0.33898
1614.38134,0.33732
1612.45257,0.33592
1610.52380,0.33457
1608.59503,0.33319
1606.66626,0.33183
1604.73749,0.33050
1602.80872,0.32915
1600.87995,0.32779
1598.95117,0.32639
1597.02240,0.32497
1595.09363,0.32351
1593.16486,0.32201
1591.23609,0.32049
1589.30732,0.31895
1587.37855,0.31740
1585.44978,0.31585
1583.52101,0.31432
1581.59224,0.31282
1579.66346,0.31137
1577.73469,0.30980
1575.80592,0.30780
1573.87715,0.30596
1571.94838,0.30447
1570.01961,0.30283
1568.09084,0.30111
1566.16207,0.29965
1564.23330,0.29837
1562.30453,0.29728
1560.37575,0.29614
1558.44698,0.29455
1556.51821,0.29323
1554.58944,0.29228
1552.66067,0.29136
1550.73190,0.29048
1548.80313,0.28964
1546.87436,0.28890
1544.94559,0.28821
1543.01682,0.28750
1541.08804,0.28662
1539.15927,0.28548
1537.23050,0.28457
1535.30173,0.28386
1533.37296,0.28311
1531.44419,0.28243
1529.51542,0.28195
1527.58665,0.28153
1525.65788,0.28115
1523.72910,0.28086
1521.80033,0.28060
1519.87156,0.28038
1517.94279,0.28024
1516.01402,0.28013
1514.08525,0.28005
1512.15648,0.28001
1510.22771,0.28001
1508.29894,0.28007
1506.37017,0.28020
1504.44139,0.28039
1502.51262,0.28065
1500.58385,0.28103
1498.65508,0.28157
1496.72631,0.28223
1494.79754,0.28290
1492.86877,0.28353
1490.94000,0.28432
1489.01123,0.28540
1487.08246,0.28666
1485.15368,0.28804
1483.22491,0.28959
1481.29614,0.29137
1479.36737,0.29334
1477.43860,0.29554
1475.50983,0.29813
1473.58106,0.30145
1471.65229,0.30540
1469.72352,0.30891
1467.79475,0.31177
1465.86597,0.31440
1463.93720,0.31664
1462.00843,0.31818
1460.07966,0.31920
1458.15089,0.32000
1456.22212,0.32044
1454.29335,0.32041
1452.36458,0.32015
1450.43581,0.31980
1448.50704,0.31937
1446.57826,0.31883
1444.64949,0.31825
1442.72072,0.31770
1440.79195,0.31725
1438.86318,0.31698
1436.93441,0.31686
1435.00564,0.31690
1433.07687,0.31711
1431.14810,0.31749
1429.21933,0.31805
1427.29055,0.31875
1425.36178,0.31954
1423.43301,0.32037
1421.50424,0.32114
1419.57547,0.32191
1417.64670,0.32265
1415.71793,0.32323
1413.78916,0.32375
1411.86039,0.32429
1409.93161,0.32492
1408.00284,0.32565
1406.07407,0.32653
1404.14530,0.32755
1402.21653,0.32861
1400.28776,0.32975
1398.35899,0.33107
1396.43022,0.33264
1394.50145,0.33468
1392.57268,0.33724
1390.64390,0.34031
1388.71513,0.34447
1386.78636,0.34998
1384.85759,0.35557
1382.92882,0.35998
1381.00005,0.36300
1379.07128,0.36445
1377.14251,0.36397
1375.21374,0.36160
1373.28497,0.35838
1371.35619,0.35581
1369.42742,0.35430
1367.49865,0.35332
1365.56988,0.35229
1363.64111,0.35088
1361.71234,0.34919
1359.78357,0.34757
1357.85480,0.34608
1355.92603,0.34464
1353.99726,0.34327
1352.06848,0.34206
1350.13971,0.34106
1348.21094,0.34028
1346.28217,0.33969
1344.35340,0.33926
1342.42463,0.33897
1340.49586,0.33879
1338.56709,0.33874
1336.63832,0.33883
1334.70955,0.33909
1332.78077,0.33950
1330.85200,0.34003
1328.92323,0.34065
1326.99446,0.34134
1325.06569,0.34207
1323.13692,0.34282
1321.20815,0.34362
1319.27938,0.34451
1317.35061,0.34547
1315.42183,0.34651
1313.49306,0.34765
1311.56429,0.34888
1309.63552,0.35020
1307.70675,0.35160
1305.77798,0.35314
1303.84921,0.35486
1301.92044,0.35687
1299.99167,0.35929
1298.06290,0.36230
1296.13412,0.36611
1294.20535,0.37086
1292.27658,0.37653
1290.34781,0.38284
1288.41904,0.38941
1286.49027,0.39603
1284.56150,0.40241
1282.63273,0.40765
1280.70396,0.41017
1278.77519,0.40864
1276.84641,0.40302
1274.91764,0.39483
1272.98887,0.38648
1271.06010,0.37996
1269.13133,0.37603
1267.20256,0.37438
1265.27379,0.37428
1263.34502,0.37510
1261.41625,0.37645
1259.48748,0.37811
1257.55870,0.37996
1255.62993,0.38200
1253.70116,0.38428
1251.77239,0.38681
1249.84362,0.38953
1247.91485,0.39236
1245.98608,0.39522
1244.05731,0.39807
1242.12854,0.40092
1240.19977,0.40378
1238.27099,0.40668
1236.34222,0.40958
1234.41345,0.41248
1232.48468,0.41535
1230.55591,0.41821
1228.62714,0.42109
1226.69837,0.42401
1224.76960,0.42700
1222.84083,0.43007
1220.91206,0.43325
1218.98328,0.43659
1217.05451,0.44018
1215.12574,0.44408
1213.19697,0.44829
1211.26820,0.45277
1209.33943,0.45732
1207.41066,0.46173
1205.48189,0.46583
1203.55312,0.46963
1201.62434,0.47329
1199.69557,0.47697
1197.76680,0.48071
1195.83803,0.48456
1193.90926,0.48856
1191.98049,0.49276
1190.05172,0.49713
1188.12295,0.50162
1186.19418,0.50619
1184.26541,0.51078
1182.33663,0.51538
1180.40786,0.51999
1178.47909,0.52458
1176.55032,0.52914
1174.62155,0.53371
1172.69278,0.53830
1170.76401,0.54285
1168.83524,0.54730
1166.90647,0.55155
1164.97770,0.55552
1163.04892,0.55919
1161.12015,0.56261
1159.19138,0.56586
1157.26261,0.56901
1155.33384,0.57208
1153.40507,0.57511
1151.47630,0.57818
1149.54753,0.58138
1147.61876,0.58478
1145.68999,0.58842
1143.76121,0.59229
1141.83244,0.59635
1139.90367,0.60052
1137.97490,0.60488
1136.04613,0.60974
1134.11736,0.61541
1132.18859,0.62201
1130.25982,0.62935
1128.33105,0.63698
1126.40228,0.64448
1124.47350,0.65140
1122.54473,0.65705
1120.61596,0.66094
1118.68719,0.66335
1116.75842,0.66530
1114.82965,0.66792
1112.90088,0.67183
1110.97211,0.67712
1109.04334,0.68362
1107.11456,0.69120
1105.18579,0.69969
1103.25702,0.70884
1101.32825,0.71845
1099.39948,0.72829
1097.47071,0.73811
1095.54194,0.74761
1093.61317,0.75657
1091.68440,0.76482
1089.75563,0.77234
1087.82685,0.77923
1085.89808,0.78557
1083.96931,0.79140
1082.04054,0.79671
1080.11177,0.80152
1078.18300,0.80591
1076.25423,0.81006
1074.32546,0.81402
1072.39669,0.81774
1070.46792,0.82116
1068.53914,0.82425
1066.61037,0.82704
1064.68160,0.82957
1062.75283,0.83181
1060.82406,0.83366
1058.89529,0.83500
1056.96652,0.83575
1055.03775,0.83592
1053.10898,0.83554
1051.18021,0.83452
1049.25143,0.83281
1047.32266,0.83051
1045.39389,0.82794
1043.46512,0.82571
1041.53635,0.82449
1039.60758,0.82467
1037.67881,0.82632
1035.75004,0.82948
1033.82127,0.83403
1031.89250,0.83963
1029.96372,0.84583
1028.03495,0.85223
1026.10618,0.85858
1024.17741,0.86484
1022.24864,0.87129
1020.31987,0.87831
1018.39110,0.88612
1016.46233,0.89455
1014.53356,0.90338
1012.60478,0.91265
1010.67601,0.92229
1008.74724,0.93206
1006.81847,0.94156
1004.88970,0.95033
1002.96093,0.95786
1001.03216,0.96366
999.10339,0.96752
997.17462,0.96953
995.24585,0.97021
993.31707,0.97038
991.38830,0.97107
989.45953,0.97326
987.53076,0.97739
985.60199,0.98326
983.67322,0.99025
981.74445,0.99775
979.81568,1.00531
977.88691,1.01249
975.95814,1.01838
974.02936,1.02134
972.10059,1.01970
970.17182,1.01239
968.24305,0.99967
966.31428,0.98320
964.38551,0.96537
962.45674,0.94849
960.52797,0.93446
958.59920,0.92537
956.67043,0.92413
954.74165,0.93344
952.81288,0.95230
950.88411,0.97405
948.95534,0.99018
947.02657,0.99681
945.09780,0.99606
943.16903,0.99213
941.24026,0.98822
939.31149,0.98591
937.38272,0.98575
935.45394,0.98776
933.52517,0.99157
931.59640,0.99673
929.66763,1.00267
927.73886,1.00866
925.81009,1.01386
923.88132,1.01744
921.95255,1.01883
920.02378,1.01795
918.09501,1.01522
916.16623,1.01172
914.23746,1.00869
912.30869,1.00697
910.37992,1.00687
908.45115,1.00880
906.52238,1.01340
904.59361,1.02114
902.66484,1.03205
900.73607,1.04563
898.80729,1.06094
896.87852,1.07708
894.94975,1.09351
893.02098,1.10995
891.09221,1.12587
889.16344,1.14011
887.23467,1.15105
885.30590,1.15725
883.37713,1.15749
881.44836,1.15110
879.51958,1.13856
877.59081,1.12114
875.66204,1.10008
873.73327,1.07653
871.80450,1.05179
869.87573,1.02683
867.94696,1.00223
866.01819,0.97816
864.08942,0.95470
862.16065,0.93196
860.23187,0.90986
858.30310,0.88834
856.37433,0.86720
854.44556,0.84613
852.51679,0.82480
850.58802,0.80322
848.65925,0.78226
846.73048,0.76398
844.80171,0.75143
842.87294,0.74695
840.94416,0.74963
839.01539,0.75401
837.08662,0.75294
835.15785,0.74269
833.22908,0.72468
831.30031,0.70274
829.37154,0.67996
827.44277,0.65783
825.51400,0.63675
823.58523,0.61682
821.65645,0.59804
819.72768,0.58032
817.79891,0.56363
815.87014,0.54801
813.94137,0.53356
812.01260,0.52033
810.08383,0.50821
808.15506,0.49701
806.22629,0.48660
804.29751,0.47686
802.36874,0.46761
800.43997,0.45871
798.51120,0.45009
796.58243,0.44164
794.65366,0.43333
792.72489,0.42517
790.79612,0.41715
788.86735,0.40930
786.93858,0.40166
785.00980,0.39420
783.08103,0.38694
781.15226,0.37992
779.22349,0.37300
777.29472,0.36611
775.36595,0.35930
773.43718,0.35273
771.50841,0.34646
769.57964,0.34051
767.65087,0.33495
765.72209,0.32979
763.79332,0.32496
761.86455,0.32041
759.93578,0.31615
758.00701,0.31214
756.07824,0.30838
754.14947,0.30496
752.22070,0.30206
750.29193,0.30001
748.36316,0.29907
746.43438,0.29896
744.50561,0.29861
742.57684,0.29681
740.64807,0.29365
738.71930,0.29060
736.79053,0.28923
734.86176,0.29014
732.93299,0.29320
731.00422,0.29776
729.07545,0.30246
727.14667,0.30534
725.21790,0.30491
723.28913,0.30126
721.36036,0.29547
719.43159,0.28884
717.50282,0.28257
715.57405,0.27717
713.64528,0.27270
711.71651,0.26918
709.78773,0.26656
707.85896,0.26475
705.93019,0.26367
704.00142,0.26326
702.07265,0.26350
700.14388,0.26443
698.21511,0.26622
696.28634,0.26908
694.35757,0.27306
692.42880,0.27786
690.50002,0.28288
688.57125,0.28715
686.64248,0.28964
684.71371,0.28994
682.78494,0.28863
680.85617,0.28678
678.92740,0.28516
676.99863,0.28379
675.06986,0.28212
673.14109,0.28002
671.21231,0.27806
669.28354,0.27688
667.35477,0.27756
665.42600,0.27983
663.49723,0.28340
661.56846,0.28911
659.63969,0.29704
657.71092,0.30687
655.78215,0.31830
653.85338,0.33080
651.92460,0.34370
649.99583,0.35670
648.06706,0.36962
646.13829,0.38176
644.20952,0.39225
642.28075,0.40008
640.35198,0.40449
638.42321,0.40562
636.49444,0.40459
634.56567,0.40272
632.63689,0.40124
630.70812,0.40108
628.77935,0.40267
626.85058,0.40625
624.92181,0.41191
622.99304,0.41966
621.06427,0.42920
619.13550,0.44044
617.20673,0.45323
615.27796,0.46663
613.34918,0.47993
611.42041,0.49301
609.49164,0.50579
607.56287,0.51805
605.63410,0.52959
603.70533,0.54005
601.77656,0.54913
599.84779,0.55686
597.91902,0.56298
595.99024,0.56705
594.06147,0.56834
592.13270,0.56653
590.20393,0.56169
588.27516,0.55430
586.34639,0.54534
584.41762,0.53592
582.48885,0.52748
580.56008,0.52114
578.63131,0.51750
576.70253,0.51673
574.77376,0.51894
572.84499,0.52404
570.91622,0.53166
568.98745,0.54152
567.05868,0.55285
565.12991,0.56486
563.20114,0.57713
561.27237,0.58952
559.34360,0.60229
557.41482,0.61617
555.48605,0.63214
553.55728,0.65061
551.62851,0.67168
549.69974,0.69496
547.77097,0.71946
545.84220,0.74368
543.91343,0.76557
541.98466,0.78353
540.05589,0.79668
538.12711,0.80552
536.19834,0.81098
534.26957,0.81346
532.34080,0.81381
530.41203,0.81442
528.48326,0.81892
526.55449,0.82990
524.62572,0.84690
522.69695,0.86565
520.76818,0.88236
518.83940,0.89567
516.91063,0.90532
514.98186,0.91222
513.05309,0.91726
511.12432,0.92093
509.19555,0.92360
507.26678,0.92637
505.33801,0.93008
503.40924,0.93496
501.48046,0.94032
499.55169,0.94292
497.62292,0.93949
495.69415,0.92894
493.76538,0.91193
491.83661,0.88956
489.90784,0.86355
487.97907,0.83578
486.05030,0.80704
484.12153,0.77831
482.19275,0.75132
480.26398,0.72767
478.33521,0.70822
476.40644,0.69359
474.47767,0.68388
472.54890,0.67891
470.62013,0.67820
468.69136,0.67972
466.76259,0.68129
464.83382,0.68202
462.90504,0.68208
460.97627,0.68177
459.04750,0.68122
457.11873,0.68040
455.18996,0.67915
453.26119,0.67787
451.33242,0.67766
449.40365,0.67963
447.47488,0.68405
445.54611,0.69020
443.61733,0.69688
441.68856,0.70376
439.75979,0.71113
437.83102,0.71961
435.90225,0.72984
433.97348,0.74136
432.04471,0.75379
430.11594,0.76769
428.18717,0.78326
426.25840,0.79919
424.32962,0.81352
422.40085,0.82569
420.47208,0.83923
418.54331,0.85826
416.61454,0.87760
414.68577,0.89422
412.75700,0.91055
410.82823,0.92421
408.89946,0.93160
406.97069,0.93091
405.04191,0.92235
403.11314,0.90899
401.18437,0.89469
399.25560,0.87835
397.32683,0.85818
395.39806,0.83836
393.46929,0.82123
391.54052,0.80573
389.61175,0.79024
387.68297,0.77307
385.75420,0.75291
383.82543,0.73376
381.89666,0.71852
379.96789,0.70463
378.03912,0.69451
376.11035,0.69306
374.18158,0.69715
372.25281,0.69726
370.32404,0.69836
368.39526,0.70800
366.46649,0.72131
364.53772,0.73335
362.60895,0.74230
360.68018,0.74483
358.75141,0.74384
356.82264,0.74809
354.89387,0.73952
352.96510,0.70930
351.03633,0.69114
349.10755,0.67653
