# 11 FEB 2015 - B.L. de Vries
# Bialystok, HOW, Sample 4, Take 1
# m = 2.0 mgr, KBr = 700 mgr
# Signal = 6600
# Resolution / sample scan time / bg scan time / range = 4 / 64 / 64 / 4000-300
# Source: glow-bar, Machine: Equinox 55, DTGS
# k(cm-1), absorbance
3996.41355,0.73814
3994.48478,0.73774
3992.55601,0.73734
3990.62724,0.73695
3988.69847,0.73660
3986.76970,0.73628
3984.84093,0.73595
3982.91215,0.73557
3980.98338,0.73515
3979.05461,0.73473
3977.12584,0.73432
3975.19707,0.73392
3973.26830,0.73352
3971.33953,0.73312
3969.41076,0.73274
3967.48199,0.73237
3965.55322,0.73198
3963.62444,0.73157
3961.69567,0.73116
3959.76690,0.73079
3957.83813,0.73048
3955.90936,0.73013
3953.98059,0.72972
3952.05182,0.72932
3950.12305,0.72893
3948.19428,0.72853
3946.26550,0.72814
3944.33673,0.72777
3942.40796,0.72738
3940.47919,0.72697
3938.55042,0.72656
3936.62165,0.72618
3934.69288,0.72581
3932.76411,0.72540
3930.83534,0.72498
3928.90657,0.72461
3926.97779,0.72423
3925.04902,0.72381
3923.12025,0.72340
3921.19148,0.72301
3919.26271,0.72260
3917.33394,0.72217
3915.40517,0.72179
3913.47640,0.72143
3911.54763,0.72108
3909.61886,0.72073
3907.69008,0.72035
3905.76131,0.71989
3903.83254,0.71935
3901.90377,0.71886
3899.97500,0.71846
3898.04623,0.71810
3896.11746,0.71779
3894.18869,0.71748
3892.25992,0.71707
3890.33115,0.71663
3888.40237,0.71629
3886.47360,0.71595
3884.54483,0.71550
3882.61606,0.71504
3880.68729,0.71460
3878.75852,0.71418
3876.82975,0.71384
3874.90098,0.71349
3872.97221,0.71305
3871.04344,0.71258
3869.11466,0.71211
3867.18589,0.71175
3865.25712,0.71142
3863.32835,0.71102
3861.39958,0.71063
3859.47081,0.71027
3857.54204,0.70991
3855.61327,0.70944
3853.68450,0.70877
3851.75572,0.70823
3849.82695,0.70803
3847.89818,0.70789
3845.96941,0.70764
3844.04064,0.70724
3842.11187,0.70673
3840.18310,0.70624
3838.25433,0.70582
3836.32556,0.70542
3834.39679,0.70502
3832.46801,0.70462
3830.53924,0.70426
3828.61047,0.70393
3826.68170,0.70357
3824.75293,0.70323
3822.82416,0.70288
3820.89539,0.70238
3818.96662,0.70190
3817.03785,0.70155
3815.10908,0.70114
3813.18030,0.70075
3811.25153,0.70045
3809.32276,0.70015
3807.39399,0.69971
3805.46522,0.69924
3803.53645,0.69887
3801.60768,0.69843
3799.67891,0.69796
3797.75014,0.69760
3795.82137,0.69726
3793.89259,0.69692
3791.96382,0.69664
3790.03505,0.69631
3788.10628,0.69593
3786.17751,0.69551
3784.24874,0.69509
3782.31997,0.69475
3780.39120,0.69443
3778.46243,0.69403
3776.53366,0.69362
3774.60488,0.69328
3772.67611,0.69297
3770.74734,0.69259
3768.81857,0.69214
3766.88980,0.69173
3764.96103,0.69137
3763.03226,0.69103
3761.10349,0.69067
3759.17472,0.69026
3757.24594,0.68986
3755.31717,0.68955
3753.38840,0.68922
3751.45963,0.68877
3749.53086,0.68828
3747.60209,0.68797
3745.67332,0.68768
3743.74455,0.68726
3741.81578,0.68696
3739.88701,0.68681
3737.95823,0.68657
3736.02946,0.68611
3734.10069,0.68561
3732.17192,0.68527
3730.24315,0.68504
3728.31438,0.68482
3726.38561,0.68454
3724.45684,0.68423
3722.52807,0.68398
3720.59930,0.68374
3718.67052,0.68353
3716.74175,0.68336
3714.81298,0.68318
3712.88421,0.68294
3710.95544,0.68261
3709.02667,0.68233
3707.09790,0.68221
3705.16913,0.68214
3703.24036,0.68206
3701.31159,0.68194
3699.38281,0.68189
3697.45404,0.68196
3695.52527,0.68208
3693.59650,0.68223
3691.66773,0.68245
3689.73896,0.68274
3687.81019,0.68302
3685.88142,0.68330
3683.95265,0.68364
3682.02388,0.68399
3680.09510,0.68425
3678.16633,0.68438
3676.23756,0.68435
3674.30879,0.68419
3672.38002,0.68408
3670.45125,0.68407
3668.52248,0.68413
3666.59371,0.68432
3664.66494,0.68462
3662.73617,0.68498
3660.80739,0.68538
3658.87862,0.68580
3656.94985,0.68623
3655.02108,0.68670
3653.09231,0.68721
3651.16354,0.68785
3649.23477,0.68861
3647.30600,0.68940
3645.37723,0.69019
3643.44845,0.69103
3641.51968,0.69195
3639.59091,0.69291
3637.66214,0.69392
3635.73337,0.69498
3633.80460,0.69605
3631.87583,0.69710
3629.94706,0.69835
3628.01829,0.69992
3626.08952,0.70137
3624.16074,0.70271
3622.23197,0.70411
3620.30320,0.70568
3618.37443,0.70741
3616.44566,0.70908
3614.51689,0.71074
3612.58812,0.71252
3610.65935,0.71432
3608.73058,0.71621
3606.80181,0.71816
3604.87303,0.71995
3602.94426,0.72172
3601.01549,0.72362
3599.08672,0.72557
3597.15795,0.72747
3595.22918,0.72939
3593.30041,0.73131
3591.37164,0.73312
3589.44287,0.73496
3587.51410,0.73706
3585.58532,0.73912
3583.65655,0.74093
3581.72778,0.74268
3579.79901,0.74447
3577.87024,0.74625
3575.94147,0.74799
3574.01270,0.74971
3572.08393,0.75135
3570.15516,0.75289
3568.22639,0.75451
3566.29761,0.75629
3564.36884,0.75797
3562.44007,0.75952
3560.51130,0.76109
3558.58253,0.76263
3556.65376,0.76414
3554.72499,0.76566
3552.79622,0.76724
3550.86745,0.76881
3548.93867,0.77032
3547.00990,0.77189
3545.08113,0.77354
3543.15236,0.77514
3541.22359,0.77668
3539.29482,0.77825
3537.36605,0.77989
3535.43728,0.78158
3533.50851,0.78320
3531.57974,0.78479
3529.65096,0.78642
3527.72219,0.78812
3525.79342,0.78985
3523.86465,0.79158
3521.93588,0.79327
3520.00711,0.79492
3518.07834,0.79658
3516.14957,0.79825
3514.22080,0.79988
3512.29203,0.80151
3510.36325,0.80319
3508.43448,0.80488
3506.50571,0.80648
3504.57694,0.80805
3502.64817,0.80963
3500.71940,0.81114
3498.79063,0.81262
3496.86186,0.81412
3494.93309,0.81560
3493.00432,0.81702
3491.07554,0.81840
3489.14677,0.81980
3487.21800,0.82119
3485.28923,0.82257
3483.36046,0.82392
3481.43169,0.82528
3479.50292,0.82660
3477.57415,0.82789
3475.64538,0.82917
3473.71661,0.83046
3471.78783,0.83174
3469.85906,0.83299
3467.93029,0.83422
3466.00152,0.83540
3464.07275,0.83658
3462.14398,0.83776
3460.21521,0.83891
3458.28644,0.83999
3456.35767,0.84099
3454.42889,0.84194
3452.50012,0.84286
3450.57135,0.84372
3448.64258,0.84452
3446.71381,0.84525
3444.78504,0.84587
3442.85627,0.84638
3440.92750,0.84679
3438.99873,0.84714
3437.06996,0.84743
3435.14118,0.84761
3433.21241,0.84763
3431.28364,0.84753
3429.35487,0.84731
3427.42610,0.84700
3425.49733,0.84664
3423.56856,0.84618
3421.63979,0.84561
3419.71102,0.84494
3417.78225,0.84424
3415.85347,0.84349
3413.92470,0.84265
3411.99593,0.84171
3410.06716,0.84071
3408.13839,0.83965
3406.20962,0.83856
3404.28085,0.83744
3402.35208,0.83626
3400.42331,0.83502
3398.49454,0.83371
3396.56576,0.83239
3394.63699,0.83104
3392.70822,0.82960
3390.77945,0.82804
3388.85068,0.82638
3386.92191,0.82469
3384.99314,0.82293
3383.06437,0.82105
3381.13560,0.81904
3379.20683,0.81694
3377.27805,0.81473
3375.34928,0.81241
3373.42051,0.81001
3371.49174,0.80755
3369.56297,0.80500
3367.63420,0.80235
3365.70543,0.79966
3363.77666,0.79698
3361.84789,0.79430
3359.91912,0.79165
3357.99034,0.78904
3356.06157,0.78647
3354.13280,0.78395
3352.20403,0.78149
3350.27526,0.77905
3348.34649,0.77665
3346.41772,0.77431
3344.48895,0.77200
3342.56018,0.76971
3340.63140,0.76744
3338.70263,0.76521
3336.77386,0.76301
3334.84509,0.76087
3332.91632,0.75878
3330.98755,0.75668
3329.05878,0.75461
3327.13001,0.75259
3325.20124,0.75062
3323.27247,0.74871
3321.34369,0.74685
3319.41492,0.74500
3317.48615,0.74317
3315.55738,0.74135
3313.62861,0.73958
3311.69984,0.73784
3309.77107,0.73615
3307.84230,0.73450
3305.91353,0.73291
3303.98476,0.73137
3302.05598,0.72984
3300.12721,0.72831
3298.19844,0.72678
3296.26967,0.72527
3294.34090,0.72381
3292.41213,0.72240
3290.48336,0.72108
3288.55459,0.71979
3286.62582,0.71848
3284.69705,0.71718
3282.76827,0.71591
3280.83950,0.71465
3278.91073,0.71341
3276.98196,0.71219
3275.05319,0.71099
3273.12442,0.70979
3271.19565,0.70861
3269.26688,0.70746
3267.33811,0.70633
3265.40934,0.70519
3263.48056,0.70403
3261.55179,0.70285
3259.62302,0.70163
3257.69425,0.70038
3255.76548,0.69912
3253.83671,0.69788
3251.90794,0.69661
3249.97917,0.69530
3248.05040,0.69396
3246.12162,0.69261
3244.19285,0.69123
3242.26408,0.68984
3240.33531,0.68845
3238.40654,0.68704
3236.47777,0.68558
3234.54900,0.68411
3232.62023,0.68266
3230.69146,0.68124
3228.76269,0.67982
3226.83391,0.67842
3224.90514,0.67704
3222.97637,0.67564
3221.04760,0.67421
3219.11883,0.67277
3217.19006,0.67133
3215.26129,0.66990
3213.33252,0.66847
3211.40375,0.66708
3209.47498,0.66569
3207.54620,0.66429
3205.61743,0.66288
3203.68866,0.66146
3201.75989,0.66001
3199.83112,0.65856
3197.90235,0.65712
3195.97358,0.65570
3194.04481,0.65430
3192.11604,0.65291
3190.18727,0.65152
3188.25849,0.65013
3186.32972,0.64875
3184.40095,0.64740
3182.47218,0.64606
3180.54341,0.64474
3178.61464,0.64343
3176.68587,0.64213
3174.75710,0.64084
3172.82833,0.63957
3170.89956,0.63831
3168.97078,0.63707
3167.04201,0.63583
3165.11324,0.63459
3163.18447,0.63337
3161.25570,0.63217
3159.32693,0.63100
3157.39816,0.62983
3155.46939,0.62864
3153.54062,0.62748
3151.61185,0.62636
3149.68307,0.62526
3147.75430,0.62415
3145.82553,0.62304
3143.89676,0.62196
3141.96799,0.62088
3140.03922,0.61979
3138.11045,0.61874
3136.18168,0.61772
3134.25291,0.61671
3132.32413,0.61566
3130.39536,0.61462
3128.46659,0.61362
3126.53782,0.61267
3124.60905,0.61169
3122.68028,0.61066
3120.75151,0.60962
3118.82274,0.60863
3116.89397,0.60768
3114.96520,0.60678
3113.03642,0.60590
3111.10765,0.60498
3109.17888,0.60402
3107.25011,0.60311
3105.32134,0.60223
3103.39257,0.60134
3101.46380,0.60040
3099.53503,0.59947
3097.60626,0.59859
3095.67749,0.59773
3093.74871,0.59685
3091.81994,0.59595
3089.89117,0.59506
3087.96240,0.59420
3086.03363,0.59335
3084.10486,0.59251
3082.17609,0.59167
3080.24732,0.59083
3078.31855,0.59002
3076.38978,0.58927
3074.46100,0.58854
3072.53223,0.58778
3070.60346,0.58698
3068.67469,0.58618
3066.74592,0.58542
3064.81715,0.58472
3062.88838,0.58404
3060.95961,0.58334
3059.03084,0.58262
3057.10207,0.58192
3055.17329,0.58125
3053.24452,0.58060
3051.31575,0.57998
3049.38698,0.57941
3047.45821,0.57887
3045.52944,0.57834
3043.60067,0.57785
3041.67190,0.57745
3039.74313,0.57712
3037.81435,0.57684
3035.88558,0.57661
3033.95681,0.57646
3032.02804,0.57644
3030.09927,0.57653
3028.17050,0.57671
3026.24173,0.57697
3024.31296,0.57733
3022.38419,0.57781
3020.45542,0.57842
3018.52664,0.57917
3016.59787,0.58006
3014.66910,0.58109
3012.74033,0.58226
3010.81156,0.58354
3008.88279,0.58489
3006.95402,0.58622
3005.02525,0.58750
3003.09648,0.58874
3001.16771,0.58993
2999.23893,0.59104
2997.31016,0.59211
2995.38139,0.59312
2993.45262,0.59404
2991.52385,0.59489
2989.59508,0.59569
2987.66631,0.59642
2985.73754,0.59705
2983.80877,0.59756
2981.88000,0.59798
2979.95122,0.59836
2978.02245,0.59871
2976.09368,0.59908
2974.16491,0.59961
2972.23614,0.60045
2970.30737,0.60168
2968.37860,0.60332
2966.44983,0.60526
2964.52106,0.60729
2962.59229,0.60919
2960.66351,0.61073
2958.73474,0.61180
2956.80597,0.61238
2954.87720,0.61255
2952.94843,0.61234
2951.01966,0.61171
2949.09089,0.61064
2947.16212,0.60931
2945.23335,0.60813
2943.30457,0.60751
2941.37580,0.60769
2939.44703,0.60862
2937.51826,0.61014
2935.58949,0.61203
2933.66072,0.61409
2931.73195,0.61609
2929.80318,0.61771
2927.87441,0.61860
2925.94564,0.61847
2924.01686,0.61721
2922.08809,0.61497
2920.15932,0.61195
2918.23055,0.60826
2916.30178,0.60402
2914.37301,0.59948
2912.44424,0.59496
2910.51547,0.59070
2908.58670,0.58674
2906.65793,0.58303
2904.72915,0.57952
2902.80038,0.57620
2900.87161,0.57306
2898.94284,0.57011
2897.01407,0.56735
2895.08530,0.56480
2893.15653,0.56250
2891.22776,0.56046
2889.29899,0.55871
2887.37022,0.55729
2885.44144,0.55620
2883.51267,0.55543
2881.58390,0.55492
2879.65513,0.55463
2877.72636,0.55444
2875.79759,0.55424
2873.86882,0.55400
2871.94005,0.55363
2870.01128,0.55297
2868.08251,0.55187
2866.15373,0.55041
2864.22496,0.54888
2862.29619,0.54769
2860.36742,0.54716
2858.43865,0.54720
2856.50988,0.54736
2854.58111,0.54715
2852.65234,0.54629
2850.72357,0.54470
2848.79480,0.54255
2846.86602,0.54017
2844.93725,0.53790
2843.00848,0.53580
2841.07971,0.53379
2839.15094,0.53169
2837.22217,0.52940
2835.29340,0.52691
2833.36463,0.52436
2831.43586,0.52197
2829.50708,0.51989
2827.57831,0.51817
2825.64954,0.51676
2823.72077,0.51556
2821.79200,0.51449
2819.86323,0.51353
2817.93446,0.51264
2816.00569,0.51179
2814.07692,0.51096
2812.14815,0.51014
2810.21937,0.50934
2808.29060,0.50857
2806.36183,0.50781
2804.43306,0.50705
2802.50429,0.50630
2800.57552,0.50558
2798.64675,0.50489
2796.71798,0.50423
2794.78921,0.50358
2792.86044,0.50292
2790.93166,0.50226
2789.00289,0.50162
2787.07412,0.50101
2785.14535,0.50040
2783.21658,0.49979
2781.28781,0.49918
2779.35904,0.49858
2777.43027,0.49798
2775.50150,0.49740
2773.57273,0.49685
2771.64395,0.49629
2769.71518,0.49572
2767.78641,0.49516
2765.85764,0.49461
2763.92887,0.49405
2762.00010,0.49351
2760.07133,0.49297
2758.14256,0.49243
2756.21379,0.49190
2754.28502,0.49138
2752.35624,0.49086
2750.42747,0.49035
2748.49870,0.48985
2746.56993,0.48935
2744.64116,0.48885
2742.71239,0.48835
2740.78362,0.48786
2738.85485,0.48737
2736.92608,0.48687
2734.99730,0.48638
2733.06853,0.48589
2731.13976,0.48539
2729.21099,0.48488
2727.28222,0.48436
2725.35345,0.48382
2723.42468,0.48327
2721.49591,0.48270
2719.56714,0.48212
2717.63837,0.48153
2715.70959,0.48094
2713.78082,0.48035
2711.85205,0.47977
2709.92328,0.47920
2707.99451,0.47865
2706.06574,0.47810
2704.13697,0.47755
2702.20820,0.47701
2700.27943,0.47648
2698.35066,0.47598
2696.42188,0.47547
2694.49311,0.47496
2692.56434,0.47445
2690.63557,0.47395
2688.70680,0.47344
2686.77803,0.47294
2684.84926,0.47244
2682.92049,0.47196
2680.99172,0.47148
2679.06295,0.47099
2677.13417,0.47052
2675.20540,0.47005
2673.27663,0.46958
2671.34786,0.46909
2669.41909,0.46860
2667.49032,0.46811
2665.56155,0.46764
2663.63278,0.46718
2661.70401,0.46672
2659.77524,0.46625
2657.84646,0.46578
2655.91769,0.46529
2653.98892,0.46480
2652.06015,0.46433
2650.13138,0.46386
2648.20261,0.46339
2646.27384,0.46292
2644.34507,0.46244
2642.41630,0.46197
2640.48752,0.46151
2638.55875,0.46104
2636.62998,0.46057
2634.70121,0.46010
2632.77244,0.45964
2630.84367,0.45919
2628.91490,0.45875
2626.98613,0.45830
2625.05736,0.45784
2623.12859,0.45739
2621.19981,0.45694
2619.27104,0.45649
2617.34227,0.45603
2615.41350,0.45557
2613.48473,0.45513
2611.55596,0.45469
2609.62719,0.45426
2607.69842,0.45381
2605.76965,0.45336
2603.84088,0.45293
2601.91210,0.45250
2599.98333,0.45206
2598.05456,0.45162
2596.12579,0.45118
2594.19702,0.45075
2592.26825,0.45032
2590.33948,0.44990
2588.41071,0.44947
2586.48194,0.44905
2584.55317,0.44863
2582.62439,0.44820
2580.69562,0.44776
2578.76685,0.44733
2576.83808,0.44689
2574.90931,0.44646
2572.98054,0.44603
2571.05177,0.44560
2569.12300,0.44517
2567.19423,0.44475
2565.26546,0.44432
2563.33668,0.44389
2561.40791,0.44346
2559.47914,0.44302
2557.55037,0.44259
2555.62160,0.44216
2553.69283,0.44174
2551.76406,0.44131
2549.83529,0.44089
2547.90652,0.44048
2545.97775,0.44007
2544.04897,0.43964
2542.12020,0.43921
2540.19143,0.43878
2538.26266,0.43836
2536.33389,0.43795
2534.40512,0.43753
2532.47635,0.43710
2530.54758,0.43668
2528.61881,0.43626
2526.69003,0.43585
2524.76126,0.43544
2522.83249,0.43502
2520.90372,0.43461
2518.97495,0.43419
2517.04618,0.43377
2515.11741,0.43335
2513.18864,0.43293
2511.25987,0.43252
2509.33110,0.43210
2507.40232,0.43170
2505.47355,0.43129
2503.54478,0.43088
2501.61601,0.43047
2499.68724,0.43006
2497.75847,0.42965
2495.82970,0.42924
2493.90093,0.42884
2491.97216,0.42845
2490.04339,0.42807
2488.11461,0.42767
2486.18584,0.42726
2484.25707,0.42686
2482.32830,0.42646
2480.39953,0.42607
2478.47076,0.42568
2476.54199,0.42529
2474.61322,0.42488
2472.68445,0.42447
2470.75568,0.42408
2468.82690,0.42369
2466.89813,0.42331
2464.96936,0.42292
2463.04059,0.42252
2461.11182,0.42213
2459.18305,0.42175
2457.25428,0.42137
2455.32551,0.42099
2453.39674,0.42061
2451.46797,0.42022
2449.53919,0.41982
2447.61042,0.41943
2445.68165,0.41905
2443.75288,0.41869
2441.82411,0.41831
2439.89534,0.41794
2437.96657,0.41756
2436.03780,0.41719
2434.10903,0.41680
2432.18025,0.41642
2430.25148,0.41605
2428.32271,0.41568
2426.39394,0.41531
2424.46517,0.41494
2422.53640,0.41457
2420.60763,0.41419
2418.67886,0.41382
2416.75009,0.41344
2414.82132,0.41307
2412.89254,0.41270
2410.96377,0.41232
2409.03500,0.41194
2407.10623,0.41156
2405.17746,0.41119
2403.24869,0.41083
2401.31992,0.41047
2399.39115,0.41011
2397.46238,0.40975
2395.53361,0.40939
2393.60483,0.40901
2391.67606,0.40864
2389.74729,0.40828
2387.81852,0.40790
2385.88975,0.40751
2383.96098,0.40710
2382.03221,0.40667
2380.10344,0.40621
2378.17467,0.40572
2376.24590,0.40519
2374.31712,0.40460
2372.38835,0.40398
2370.45958,0.40335
2368.53081,0.40268
2366.60204,0.40199
2364.67327,0.40131
2362.74450,0.40069
2360.81573,0.40015
2358.88696,0.39981
2356.95819,0.39965
2355.02941,0.39960
2353.10064,0.39960
2351.17187,0.39963
2349.24310,0.39960
2347.31433,0.39939
2345.38556,0.39890
2343.45679,0.39830
2341.52802,0.39786
2339.59925,0.39758
2337.67048,0.39727
2335.74170,0.39689
2333.81293,0.39645
2331.88416,0.39601
2329.95539,0.39564
2328.02662,0.39536
2326.09785,0.39512
2324.16908,0.39487
2322.24031,0.39461
2320.31154,0.39435
2318.38276,0.39411
2316.45399,0.39388
2314.52522,0.39362
2312.59645,0.39332
2310.66768,0.39300
2308.73891,0.39271
2306.81014,0.39243
2304.88137,0.39214
2302.95260,0.39183
2301.02383,0.39152
2299.09505,0.39120
2297.16628,0.39088
2295.23751,0.39057
2293.30874,0.39025
2291.37997,0.38991
2289.45120,0.38957
2287.52243,0.38923
2285.59366,0.38890
2283.66489,0.38856
2281.73612,0.38821
2279.80734,0.38786
2277.87857,0.38750
2275.94980,0.38714
2274.02103,0.38679
2272.09226,0.38644
2270.16349,0.38609
2268.23472,0.38573
2266.30595,0.38539
2264.37718,0.38505
2262.44841,0.38471
2260.51963,0.38437
2258.59086,0.38403
2256.66209,0.38369
2254.73332,0.38335
2252.80455,0.38300
2250.87578,0.38267
2248.94701,0.38233
2247.01824,0.38198
2245.08947,0.38164
2243.16070,0.38129
2241.23192,0.38095
2239.30315,0.38061
2237.37438,0.38028
2235.44561,0.37995
2233.51684,0.37962
2231.58807,0.37928
2229.65930,0.37895
2227.73053,0.37861
2225.80176,0.37827
2223.87298,0.37792
2221.94421,0.37759
2220.01544,0.37725
2218.08667,0.37693
2216.15790,0.37660
2214.22913,0.37628
2212.30036,0.37595
2210.37159,0.37562
2208.44282,0.37530
2206.51405,0.37498
2204.58527,0.37466
2202.65650,0.37435
2200.72773,0.37404
2198.79896,0.37373
2196.87019,0.37342
2194.94142,0.37311
2193.01265,0.37280
2191.08388,0.37250
2189.15511,0.37219
2187.22634,0.37190
2185.29756,0.37159
2183.36879,0.37129
2181.44002,0.37100
2179.51125,0.37071
2177.58248,0.37042
2175.65371,0.37012
2173.72494,0.36983
2171.79617,0.36955
2169.86740,0.36927
2167.93863,0.36899
2166.00985,0.36870
2164.08108,0.36841
2162.15231,0.36813
2160.22354,0.36784
2158.29477,0.36755
2156.36600,0.36727
2154.43723,0.36698
2152.50846,0.36670
2150.57969,0.36643
2148.65092,0.36616
2146.72214,0.36589
2144.79337,0.36562
2142.86460,0.36535
2140.93583,0.36507
2139.00706,0.36480
2137.07829,0.36452
2135.14952,0.36425
2133.22075,0.36398
2131.29198,0.36370
2129.36320,0.36342
2127.43443,0.36314
2125.50566,0.36287
2123.57689,0.36260
2121.64812,0.36232
2119.71935,0.36204
2117.79058,0.36177
2115.86181,0.36150
2113.93304,0.36124
2112.00427,0.36096
2110.07549,0.36069
2108.14672,0.36042
2106.21795,0.36015
2104.28918,0.35989
2102.36041,0.35962
2100.43164,0.35937
2098.50287,0.35911
2096.57410,0.35884
2094.64533,0.35859
2092.71656,0.35834
2090.78778,0.35809
2088.85901,0.35785
2086.93024,0.35762
2085.00147,0.35738
2083.07270,0.35715
2081.14393,0.35692
2079.21516,0.35667
2077.28639,0.35642
2075.35762,0.35617
2073.42885,0.35592
2071.50007,0.35565
2069.57130,0.35538
2067.64253,0.35512
2065.71376,0.35485
2063.78499,0.35458
2061.85622,0.35432
2059.92745,0.35406
2057.99868,0.35379
2056.06991,0.35353
2054.14114,0.35327
2052.21236,0.35301
2050.28359,0.35276
2048.35482,0.35251
2046.42605,0.35225
2044.49728,0.35201
2042.56851,0.35177
2040.63974,0.35154
2038.71097,0.35131
2036.78220,0.35109
2034.85343,0.35088
2032.92465,0.35066
2030.99588,0.35045
2029.06711,0.35023
2027.13834,0.35001
2025.20957,0.34978
2023.28080,0.34956
2021.35203,0.34933
2019.42326,0.34911
2017.49449,0.34889
2015.56571,0.34866
2013.63694,0.34844
2011.70817,0.34820
2009.77940,0.34793
2007.85063,0.34766
2005.92186,0.34740
2003.99309,0.34712
2002.06432,0.34684
2000.13555,0.34655
1998.20678,0.34626
1996.27800,0.34597
1994.34923,0.34567
1992.42046,0.34537
1990.49169,0.34507
1988.56292,0.34479
1986.63415,0.34452
1984.70538,0.34425
1982.77661,0.34398
1980.84784,0.34372
1978.91907,0.34345
1976.99029,0.34319
1975.06152,0.34293
1973.13275,0.34266
1971.20398,0.34239
1969.27521,0.34212
1967.34644,0.34184
1965.41767,0.34156
1963.48890,0.34130
1961.56013,0.34104
1959.63136,0.34077
1957.70258,0.34050
1955.77381,0.34024
1953.84504,0.33998
1951.91627,0.33973
1949.98750,0.33948
1948.05873,0.33924
1946.12996,0.33900
1944.20119,0.33875
1942.27242,0.33848
1940.34365,0.33822
1938.41487,0.33797
1936.48610,0.33773
1934.55733,0.33747
1932.62856,0.33720
1930.69979,0.33692
1928.77102,0.33665
1926.84225,0.33638
1924.91348,0.33611
1922.98471,0.33584
1921.05593,0.33557
1919.12716,0.33531
1917.19839,0.33506
1915.26962,0.33484
1913.34085,0.33464
1911.41208,0.33444
1909.48331,0.33422
1907.55454,0.33402
1905.62577,0.33383
1903.69700,0.33363
1901.76822,0.33342
1899.83945,0.33321
1897.91068,0.33300
1895.98191,0.33278
1894.05314,0.33257
1892.12437,0.33235
1890.19560,0.33211
1888.26683,0.33184
1886.33806,0.33159
1884.40929,0.33136
1882.48051,0.33113
1880.55174,0.33089
1878.62297,0.33066
1876.69420,0.33044
1874.76543,0.33022
1872.83666,0.33002
1870.90789,0.32980
1868.97912,0.32956
1867.05035,0.32933
1865.12158,0.32914
1863.19280,0.32896
1861.26403,0.32876
1859.33526,0.32856
1857.40649,0.32837
1855.47772,0.32820
1853.54895,0.32803
1851.62018,0.32788
1849.69141,0.32775
1847.76264,0.32764
1845.83387,0.32753
1843.90509,0.32740
1841.97632,0.32730
1840.04755,0.32727
1838.11878,0.32724
1836.19001,0.32719
1834.26124,0.32715
1832.33247,0.32712
1830.40370,0.32708
1828.47493,0.32704
1826.54615,0.32704
1824.61738,0.32706
1822.68861,0.32707
1820.75984,0.32711
1818.83107,0.32718
1816.90230,0.32728
1814.97353,0.32741
1813.04476,0.32760
1811.11599,0.32783
1809.18722,0.32812
1807.25844,0.32850
1805.32967,0.32896
1803.40090,0.32952
1801.47213,0.33019
1799.54336,0.33101
1797.61459,0.33194
1795.68582,0.33297
1793.75705,0.33426
1791.82828,0.33598
1789.89951,0.33794
1787.97073,0.34002
1786.04196,0.34245
1784.11319,0.34527
1782.18442,0.34827
1780.25565,0.35136
1778.32688,0.35428
1776.39811,0.35676
1774.46934,0.35890
1772.54057,0.36086
1770.61180,0.36244
1768.68302,0.36352
1766.75425,0.36431
1764.82548,0.36488
1762.89671,0.36526
1760.96794,0.36546
1759.03917,0.36543
1757.11040,0.36514
1755.18163,0.36459
1753.25286,0.36384
1751.32409,0.36279
1749.39531,0.36150
1747.46654,0.36028
1745.53777,0.35922
1743.60900,0.35826
1741.68023,0.35738
1739.75146,0.35659
1737.82269,0.35598
1735.89392,0.35556
1733.96515,0.35528
1732.03638,0.35536
1730.10760,0.35581
1728.17883,0.35656
1726.25006,0.35754
1724.32129,0.35871
1722.39252,0.35993
1720.46375,0.36106
1718.53498,0.36223
1716.60621,0.36344
1714.67744,0.36431
1712.74866,0.36479
1710.81989,0.36497
1708.89112,0.36485
1706.96235,0.36435
1705.03358,0.36347
1703.10481,0.36241
1701.17604,0.36090
1699.24727,0.35884
1697.31850,0.35694
1695.38973,0.35498
1693.46095,0.35321
1691.53218,0.35183
1689.60341,0.35052
1687.67464,0.34946
1685.74587,0.34866
1683.81710,0.34803
1681.88833,0.34785
1679.95956,0.34809
1678.03079,0.34858
1676.10202,0.34940
1674.17324,0.35055
1672.24447,0.35179
1670.31570,0.35335
1668.38693,0.35533
1666.45816,0.35722
1664.52939,0.35919
1662.60062,0.36176
1660.67185,0.36462
1658.74308,0.36712
1656.81431,0.36919
1654.88553,0.37143
1652.95676,0.37517
1651.02799,0.37860
1649.09922,0.38092
1647.17045,0.38386
1645.24168,0.38726
1643.31291,0.38994
1641.38414,0.39224
1639.45537,0.39438
1637.52660,0.39652
1635.59782,0.39915
1633.66905,0.40157
1631.74028,0.40292
1629.81151,0.40350
1627.88274,0.40361
1625.95397,0.40349
1624.02520,0.40324
1622.09643,0.40294
1620.16766,0.40264
1618.23888,0.40207
1616.31011,0.40090
1614.38134,0.39946
1612.45257,0.39811
1610.52380,0.39668
1608.59503,0.39518
1606.66626,0.39367
1604.73749,0.39216
1602.80872,0.39058
1600.87995,0.38893
1598.95117,0.38722
1597.02240,0.38542
1595.09363,0.38349
1593.16486,0.38149
1591.23609,0.37944
1589.30732,0.37731
1587.37855,0.37511
1585.44978,0.37290
1583.52101,0.37066
1581.59224,0.36843
1579.66346,0.36631
1577.73469,0.36404
1575.80592,0.36127
1573.87715,0.35883
1571.94838,0.35691
1570.01961,0.35468
1568.09084,0.35229
1566.16207,0.35024
1564.23330,0.34836
1562.30453,0.34672
1560.37575,0.34488
1558.44698,0.34213
1556.51821,0.33996
1554.58944,0.33843
1552.66067,0.33687
1550.73190,0.33529
1548.80313,0.33375
1546.87436,0.33236
1544.94559,0.33104
1543.01682,0.32973
1541.08804,0.32831
1539.15927,0.32680
1537.23050,0.32580
1535.30173,0.32509
1533.37296,0.32427
1531.44419,0.32349
1529.51542,0.32293
1527.58665,0.32239
1525.65788,0.32188
1523.72910,0.32147
1521.80033,0.32109
1519.87156,0.32078
1517.94279,0.32058
1516.01402,0.32045
1514.08525,0.32037
1512.15648,0.32035
1510.22771,0.32038
1508.29894,0.32046
1506.37017,0.32069
1504.44139,0.32105
1502.51262,0.32147
1500.58385,0.32200
1498.65508,0.32274
1496.72631,0.32369
1494.79754,0.32463
1492.86877,0.32546
1490.94000,0.32647
1489.01123,0.32790
1487.08246,0.32962
1485.15368,0.33150
1483.22491,0.33360
1481.29614,0.33603
1479.36737,0.33873
1477.43860,0.34172
1475.50983,0.34532
1473.58106,0.35004
1471.65229,0.35580
1469.72352,0.36086
1467.79475,0.36495
1465.86597,0.36885
1463.93720,0.37235
1462.00843,0.37468
1460.07966,0.37603
1458.15089,0.37694
1456.22212,0.37732
1454.29335,0.37714
1452.36458,0.37668
1450.43581,0.37606
1448.50704,0.37525
1446.57826,0.37421
1444.64949,0.37304
1442.72072,0.37181
1440.79195,0.37064
1438.86318,0.36967
1436.93441,0.36886
1435.00564,0.36833
1433.07687,0.36816
1431.14810,0.36834
1429.21933,0.36885
1427.29055,0.36961
1425.36178,0.37050
1423.43301,0.37146
1421.50424,0.37239
1419.57547,0.37332
1417.64670,0.37424
1415.71793,0.37492
1413.78916,0.37549
1411.86039,0.37610
1409.93161,0.37678
1408.00284,0.37756
1406.07407,0.37850
1404.14530,0.37966
1402.21653,0.38090
1400.28776,0.38227
1398.35899,0.38393
1396.43022,0.38596
1394.50145,0.38870
1392.57268,0.39214
1390.64390,0.39618
1388.71513,0.40158
1386.78636,0.40884
1384.85759,0.41657
1382.92882,0.42348
1381.00005,0.42903
1379.07128,0.43215
1377.14251,0.43186
1375.21374,0.42818
1373.28497,0.42286
1371.35619,0.41851
1369.42742,0.41593
1367.49865,0.41432
1365.56988,0.41270
1363.64111,0.41046
1361.71234,0.40770
1359.78357,0.40500
1357.85480,0.40248
1355.92603,0.39997
1353.99726,0.39751
1352.06848,0.39525
1350.13971,0.39325
1348.21094,0.39154
1346.28217,0.39013
1344.35340,0.38895
1342.42463,0.38794
1340.49586,0.38707
1338.56709,0.38634
1336.63832,0.38584
1334.70955,0.38558
1332.78077,0.38556
1330.85200,0.38573
1328.92323,0.38609
1326.99446,0.38661
1325.06569,0.38724
1323.13692,0.38798
1321.20815,0.38883
1319.27938,0.38984
1317.35061,0.39101
1315.42183,0.39233
1313.49306,0.39377
1311.56429,0.39531
1309.63552,0.39688
1307.70675,0.39845
1305.77798,0.40000
1303.84921,0.40149
1301.92044,0.40289
1299.99167,0.40421
1298.06290,0.40544
1296.13412,0.40660
1294.20535,0.40772
1292.27658,0.40887
1290.34781,0.41008
1288.41904,0.41140
1286.49027,0.41285
1284.56150,0.41443
1282.63273,0.41617
1280.70396,0.41807
1278.77519,0.42010
1276.84641,0.42224
1274.91764,0.42452
1272.98887,0.42694
1271.06010,0.42956
1269.13133,0.43235
1267.20256,0.43532
1265.27379,0.43846
1263.34502,0.44173
1261.41625,0.44513
1259.48748,0.44865
1257.55870,0.45231
1255.62993,0.45620
1253.70116,0.46041
1251.77239,0.46496
1249.84362,0.46981
1247.91485,0.47484
1245.98608,0.47991
1244.05731,0.48498
1242.12854,0.49004
1240.19977,0.49511
1238.27099,0.50022
1236.34222,0.50536
1234.41345,0.51056
1232.48468,0.51582
1230.55591,0.52118
1228.62714,0.52666
1226.69837,0.53231
1224.76960,0.53816
1222.84083,0.54423
1220.91206,0.55054
1218.98328,0.55718
1217.05451,0.56428
1215.12574,0.57192
1213.19697,0.58014
1211.26820,0.58885
1209.33943,0.59775
1207.41066,0.60652
1205.48189,0.61499
1203.55312,0.62312
1201.62434,0.63109
1199.69557,0.63910
1197.76680,0.64727
1195.83803,0.65558
1193.90926,0.66406
1191.98049,0.67276
1190.05172,0.68169
1188.12295,0.69078
1186.19418,0.69993
1184.26541,0.70909
1182.33663,0.71819
1180.40786,0.72719
1178.47909,0.73609
1176.55032,0.74487
1174.62155,0.75353
1172.69278,0.76201
1170.76401,0.77019
1168.83524,0.77794
1166.90647,0.78509
1164.97770,0.79152
1163.04892,0.79724
1161.12015,0.80245
1159.19138,0.80756
1157.26261,0.81304
1155.33384,0.81912
1153.40507,0.82572
1151.47630,0.83270
1149.54753,0.83994
1147.61876,0.84749
1145.68999,0.85541
1143.76121,0.86369
1141.83244,0.87214
1139.90367,0.88052
1137.97490,0.88900
1136.04613,0.89810
1134.11736,0.90837
1132.18859,0.92007
1130.25982,0.93316
1128.33105,0.94717
1126.40228,0.96156
1124.47350,0.97548
1122.54473,0.98769
1120.61596,0.99741
1118.68719,1.00501
1116.75842,1.01210
1114.82965,1.02042
1112.90088,1.03095
1110.97211,1.04386
1109.04334,1.05891
1107.11456,1.07585
1105.18579,1.09429
1103.25702,1.11403
1101.32825,1.13479
1099.39948,1.15595
1097.47071,1.17675
1095.54194,1.19662
1093.61317,1.21531
1091.68440,1.23245
1089.75563,1.24780
1087.82685,1.26125
1085.89808,1.27292
1083.96931,1.28308
1082.04054,1.29167
1080.11177,1.29868
1078.18300,1.30409
1076.25423,1.30794
1074.32546,1.31020
1072.39669,1.31094
1070.46792,1.31035
1068.53914,1.30871
1066.61037,1.30662
1064.68160,1.30425
1062.75283,1.30162
1060.82406,1.29857
1058.89529,1.29484
1056.96652,1.29013
1055.03775,1.28440
1053.10898,1.27795
1051.18021,1.27058
1049.25143,1.26217
1047.32266,1.25307
1045.39389,1.24399
1043.46512,1.23591
1041.53635,1.22995
1039.60758,1.22699
1037.67881,1.22702
1035.75004,1.22984
1033.82127,1.23536
1031.89250,1.24323
1029.96372,1.25265
1028.03495,1.26271
1026.10618,1.27300
1024.17741,1.28353
1022.24864,1.29478
1020.31987,1.30716
1018.39110,1.32081
1016.46233,1.33559
1014.53356,1.35098
1012.60478,1.36678
1010.67601,1.38311
1008.74724,1.39996
1006.81847,1.41646
1004.88970,1.43155
1002.96093,1.44460
1001.03216,1.45478
999.10339,1.46138
997.17462,1.46463
995.24585,1.46560
993.31707,1.46538
991.38830,1.46559
989.45953,1.46811
987.53076,1.47338
985.60199,1.48067
983.67322,1.48905
981.74445,1.49797
979.81568,1.50711
977.88691,1.51607
975.95814,1.52363
974.02936,1.52693
972.10059,1.52253
970.17182,1.50821
968.24305,1.48457
966.31428,1.45457
964.38551,1.42217
962.45674,1.39162
960.52797,1.36670
958.59920,1.35089
956.67043,1.34840
954.74165,1.36271
952.81288,1.39152
950.88411,1.42341
948.95534,1.44380
947.02657,1.44673
945.09780,1.43721
943.16903,1.42343
941.24026,1.41120
939.31149,1.40312
937.38272,1.39981
935.45394,1.40114
933.52517,1.40650
931.59640,1.41505
929.66763,1.42579
927.73886,1.43735
925.81009,1.44803
923.88132,1.45617
921.95255,1.46062
920.02378,1.46144
918.09501,1.45989
916.16623,1.45786
914.23746,1.45719
912.30869,1.45901
910.37992,1.46391
908.45115,1.47242
906.52238,1.48518
904.59361,1.50305
902.66484,1.52640
900.73607,1.55396
898.80729,1.58371
896.87852,1.61410
894.94975,1.64421
893.02098,1.67334
891.09221,1.70044
889.16344,1.72333
887.23467,1.73882
885.30590,1.74380
883.37713,1.73543
881.44836,1.71344
879.51958,1.68015
877.59081,1.63817
875.66204,1.59051
873.73327,1.53993
871.80450,1.48822
869.87573,1.43657
867.94696,1.38617
866.01819,1.33754
864.08942,1.29073
862.16065,1.24574
860.23187,1.20235
858.30310,1.16048
856.37433,1.11977
854.44556,1.07963
852.51679,1.03976
850.58802,1.00069
848.65925,0.96419
846.73048,0.93354
844.80171,0.91310
842.87294,0.90550
840.94416,0.90790
839.01539,0.91080
837.08662,0.90316
835.15785,0.88056
833.22908,0.84693
831.30031,0.80925
829.37154,0.77240
827.44277,0.73832
825.51400,0.70734
823.58523,0.67930
821.65645,0.65397
819.72768,0.63110
817.79891,0.61057
815.87014,0.59240
813.94137,0.57660
812.01260,0.56306
810.08383,0.55158
808.15506,0.54205
806.22629,0.53416
804.29751,0.52739
802.36874,0.52110
800.43997,0.51451
798.51120,0.50692
796.58243,0.49810
794.65366,0.48838
792.72489,0.47835
790.79612,0.46864
788.86735,0.45969
786.93858,0.45165
785.00980,0.44434
783.08103,0.43738
781.15226,0.43020
779.22349,0.42215
777.29472,0.41302
775.36595,0.40326
773.43718,0.39362
771.50841,0.38465
769.57964,0.37655
767.65087,0.36932
765.72209,0.36290
763.79332,0.35714
761.86455,0.35185
759.93578,0.34693
758.00701,0.34239
756.07824,0.33828
754.14947,0.33483
752.22070,0.33233
750.29193,0.33113
748.36316,0.33145
746.43438,0.33293
744.50561,0.33431
742.57684,0.33415
740.64807,0.33251
738.71930,0.33109
736.79053,0.33164
734.86176,0.33480
732.93299,0.34036
731.00422,0.34753
729.07545,0.35454
727.14667,0.35868
725.21790,0.35782
723.28913,0.35216
721.36036,0.34352
719.43159,0.33404
717.50282,0.32556
715.57405,0.31863
713.64528,0.31309
711.71651,0.30893
709.78773,0.30606
707.85896,0.30433
705.93019,0.30359
704.00142,0.30381
702.07265,0.30513
700.14388,0.30772
698.21511,0.31167
696.28634,0.31694
694.35757,0.32341
692.42880,0.33084
690.50002,0.33849
688.57125,0.34501
686.64248,0.34886
684.71371,0.34954
682.78494,0.34801
680.85617,0.34592
678.92740,0.34433
676.99863,0.34310
675.06986,0.34139
673.14109,0.33889
671.21231,0.33628
669.28354,0.33441
667.35477,0.33494
665.42600,0.33777
663.49723,0.34234
661.56846,0.34974
659.63969,0.36026
657.71092,0.37373
655.78215,0.38995
653.85338,0.40821
651.92460,0.42763
649.99583,0.44776
648.06706,0.46827
646.13829,0.48771
644.20952,0.50412
642.28075,0.51541
640.35198,0.52046
638.42321,0.51977
636.49444,0.51546
634.56567,0.50984
632.63689,0.50501
630.70812,0.50248
628.77935,0.50313
626.85058,0.50755
624.92181,0.51586
622.99304,0.52798
621.06427,0.54333
619.13550,0.56163
617.20673,0.58259
615.27796,0.60453
613.34918,0.62607
611.42041,0.64694
609.49164,0.66710
607.56287,0.68611
605.63410,0.70360
603.70533,0.71917
601.77656,0.73242
599.84779,0.74307
597.91902,0.75050
595.99024,0.75427
594.06147,0.75345
592.13270,0.74747
590.20393,0.73674
588.27516,0.72259
586.34639,0.70696
584.41762,0.69188
582.48885,0.67946
580.56008,0.67099
578.63131,0.66728
576.70253,0.66856
574.77376,0.67464
572.84499,0.68505
570.91622,0.69912
568.98745,0.71620
567.05868,0.73505
565.12991,0.75473
563.20114,0.77494
561.27237,0.79566
559.34360,0.81720
557.41482,0.84053
555.48605,0.86714
553.55728,0.89760
551.62851,0.93247
549.69974,0.97162
547.77097,1.01325
545.84220,1.05474
543.91343,1.09244
541.98466,1.12334
540.05589,1.14627
538.12711,1.16225
536.19834,1.17230
534.26957,1.17727
532.34080,1.17931
530.41203,1.18224
528.48326,1.19148
526.55449,1.21118
524.62572,1.24099
522.69695,1.27356
520.76818,1.30255
518.83940,1.32672
516.91063,1.34590
514.98186,1.35954
513.05309,1.36780
511.12432,1.37335
509.19555,1.37758
507.26678,1.38011
505.33801,1.38111
503.40924,1.38171
501.48046,1.38183
499.55169,1.37783
497.62292,1.36588
495.69415,1.34311
493.76538,1.31016
491.83661,1.27079
489.90784,1.22845
487.97907,1.18494
486.05030,1.14078
484.12153,1.09751
482.19275,1.05855
480.26398,1.02634
478.33521,1.00107
476.40644,0.98291
474.47767,0.97100
472.54890,0.96356
470.62013,0.96011
468.69136,0.95961
466.76259,0.95983
464.83382,0.95924
462.90504,0.95772
460.97627,0.95532
459.04750,0.95203
457.11873,0.94758
455.18996,0.94214
453.26119,0.93686
451.33242,0.93299
449.40365,0.93089
447.47488,0.93083
445.54611,0.93381
443.61733,0.93975
441.68856,0.94778
439.75979,0.95706
437.83102,0.96844
435.90225,0.98406
433.97348,1.00325
432.04471,1.02421
430.11594,1.04662
428.18717,1.06941
426.25840,1.09096
424.32962,1.11153
422.40085,1.13075
420.47208,1.15005
418.54331,1.17563
416.61454,1.20307
414.68577,1.22681
412.75700,1.24822
410.82823,1.26625
408.89946,1.27767
406.97069,1.27607
405.04191,1.25998
403.11314,1.23597
401.18437,1.21115
399.25560,1.18106
397.32683,1.14339
395.39806,1.10924
393.46929,1.07910
391.54052,1.04763
389.61175,1.01522
387.68297,0.98595
385.75420,0.95644
383.82543,0.92374
381.89666,0.89555
379.96789,0.87788
378.03912,0.86904
376.11035,0.86753
374.18158,0.87805
372.25281,0.89397
370.32404,0.90460
368.39526,0.90170
366.46649,0.89433
364.53772,0.89879
362.60895,0.90200
360.68018,0.89701
358.75141,0.89570
356.82264,0.90323
354.89387,0.87524
352.96510,0.80360
351.03633,0.77811
349.10755,0.81976
