# 25 FEB 2015 - B.L. de Vries
# Bialystok, HOW, Sample 5, Take 1
# m = 2.0 mgr, KBr = 575 mgr
# Signal = 7000
# Resolution / sample scan time / bg scan time / range = 4 / 64 / 64 / 4000-300
# Source: glow-bar, Machine: Equinox 55, DTGS
# k(cm-1), absorbance
3996.41355,0.69098
3994.48478,0.69070
3992.55601,0.69045
3990.62724,0.69018
3988.69847,0.68990
3986.76970,0.68965
3984.84093,0.68937
3982.91215,0.68904
3980.98338,0.68870
3979.05461,0.68839
3977.12584,0.68809
3975.19707,0.68778
3973.26830,0.68748
3971.33953,0.68719
3969.41076,0.68690
3967.48199,0.68660
3965.55322,0.68629
3963.62444,0.68597
3961.69567,0.68567
3959.76690,0.68541
3957.83813,0.68514
3955.90936,0.68486
3953.98059,0.68453
3952.05182,0.68416
3950.12305,0.68379
3948.19428,0.68350
3946.26550,0.68324
3944.33673,0.68292
3942.40796,0.68262
3940.47919,0.68242
3938.55042,0.68218
3936.62165,0.68186
3934.69288,0.68148
3932.76411,0.68108
3930.83534,0.68078
3928.90657,0.68057
3926.97779,0.68026
3925.04902,0.67990
3923.12025,0.67959
3921.19148,0.67928
3919.26271,0.67893
3917.33394,0.67865
3915.40517,0.67848
3913.47640,0.67827
3911.54763,0.67798
3909.61886,0.67762
3907.69008,0.67714
3905.76131,0.67653
3903.83254,0.67600
3901.90377,0.67570
3899.97500,0.67556
3898.04623,0.67550
3896.11746,0.67537
3894.18869,0.67503
3892.25992,0.67459
3890.33115,0.67436
3888.40237,0.67414
3886.47360,0.67374
3884.54483,0.67337
3882.61606,0.67304
3880.68729,0.67267
3878.75852,0.67248
3876.82975,0.67226
3874.90098,0.67184
3872.97221,0.67138
3871.04344,0.67091
3869.11466,0.67058
3867.18589,0.67036
3865.25712,0.66999
3863.32835,0.66968
3861.39958,0.66957
3859.47081,0.66938
3857.54204,0.66896
3855.61327,0.66819
3853.68450,0.66745
3851.75572,0.66752
3849.82695,0.66779
3847.89818,0.66773
3845.96941,0.66736
3844.04064,0.66681
3842.11187,0.66626
3840.18310,0.66580
3838.25433,0.66552
3836.32556,0.66543
3834.39679,0.66525
3832.46801,0.66496
3830.53924,0.66470
3828.61047,0.66441
3826.68170,0.66408
3824.75293,0.66374
3822.82416,0.66325
3820.89539,0.66279
3818.96662,0.66259
3817.03785,0.66233
3815.10908,0.66210
3813.18030,0.66202
3811.25153,0.66181
3809.32276,0.66138
3807.39399,0.66087
3805.46522,0.66052
3803.53645,0.66017
3801.60768,0.65974
3799.67891,0.65956
3797.75014,0.65941
3795.82137,0.65921
3793.89259,0.65905
3791.96382,0.65882
3790.03505,0.65851
3788.10628,0.65816
3786.17751,0.65776
3784.24874,0.65740
3782.31997,0.65714
3780.39120,0.65686
3778.46243,0.65659
3776.53366,0.65636
3774.60488,0.65607
3772.67611,0.65567
3770.74734,0.65524
3768.81857,0.65493
3766.88980,0.65469
3764.96103,0.65443
3763.03226,0.65414
3761.10349,0.65374
3759.17472,0.65333
3757.24594,0.65308
3755.31717,0.65280
3753.38840,0.65229
3751.45963,0.65168
3749.53086,0.65144
3747.60209,0.65134
3745.67332,0.65098
3743.74455,0.65077
3741.81578,0.65088
3739.88701,0.65081
3737.95823,0.65041
3736.02946,0.64988
3734.10069,0.64959
3732.17192,0.64962
3730.24315,0.64963
3728.31438,0.64943
3726.38561,0.64908
3724.45684,0.64876
3722.52807,0.64852
3720.59930,0.64833
3718.67052,0.64816
3716.74175,0.64794
3714.81298,0.64761
3712.88421,0.64718
3710.95544,0.64693
3709.02667,0.64701
3707.09790,0.64711
3705.16913,0.64705
3703.24036,0.64685
3701.31159,0.64675
3699.38281,0.64680
3697.45404,0.64685
3695.52527,0.64686
3693.59650,0.64684
3691.66773,0.64679
3689.73896,0.64691
3687.81019,0.64732
3685.88142,0.64770
3683.95265,0.64792
3682.02388,0.64805
3680.09510,0.64810
3678.16633,0.64793
3676.23756,0.64755
3674.30879,0.64736
3672.38002,0.64728
3670.45125,0.64709
3668.52248,0.64716
3666.59371,0.64736
3664.66494,0.64744
3662.73617,0.64752
3660.80739,0.64767
3658.87862,0.64776
3656.94985,0.64784
3655.02108,0.64808
3653.09231,0.64828
3651.16354,0.64830
3649.23477,0.64855
3647.30600,0.64933
3645.37723,0.65010
3643.44845,0.65068
3641.51968,0.65122
3639.59091,0.65183
3637.66214,0.65247
3635.73337,0.65310
3633.80460,0.65373
3631.87583,0.65428
3629.94706,0.65492
3628.01829,0.65614
3626.08952,0.65741
3624.16074,0.65834
3622.23197,0.65912
3620.30320,0.65999
3618.37443,0.66114
3616.44566,0.66233
3614.51689,0.66344
3612.58812,0.66466
3610.65935,0.66592
3608.73058,0.66726
3606.80181,0.66876
3604.87303,0.67015
3602.94426,0.67133
3601.01549,0.67258
3599.08672,0.67390
3597.15795,0.67516
3595.22918,0.67647
3593.30041,0.67789
3591.37164,0.67912
3589.44287,0.68020
3587.51410,0.68160
3585.58532,0.68323
3583.65655,0.68456
3581.72778,0.68568
3579.79901,0.68682
3577.87024,0.68800
3575.94147,0.68916
3574.01270,0.69031
3572.08393,0.69138
3570.15516,0.69225
3568.22639,0.69311
3566.29761,0.69427
3564.36884,0.69549
3562.44007,0.69654
3560.51130,0.69750
3558.58253,0.69846
3556.65376,0.69937
3554.72499,0.70023
3552.79622,0.70115
3550.86745,0.70212
3548.93867,0.70302
3547.00990,0.70395
3545.08113,0.70503
3543.15236,0.70610
3541.22359,0.70703
3539.29482,0.70790
3537.36605,0.70881
3535.43728,0.70980
3533.50851,0.71076
3531.57974,0.71167
3529.65096,0.71260
3527.72219,0.71361
3525.79342,0.71466
3523.86465,0.71573
3521.93588,0.71680
3520.00711,0.71783
3518.07834,0.71883
3516.14957,0.71984
3514.22080,0.72080
3512.29203,0.72170
3510.36325,0.72260
3508.43448,0.72355
3506.50571,0.72445
3504.57694,0.72535
3502.64817,0.72631
3500.71940,0.72724
3498.79063,0.72807
3496.86186,0.72885
3494.93309,0.72966
3493.00432,0.73045
3491.07554,0.73120
3489.14677,0.73195
3487.21800,0.73273
3485.28923,0.73349
3483.36046,0.73422
3481.43169,0.73500
3479.50292,0.73577
3477.57415,0.73645
3475.64538,0.73712
3473.71661,0.73787
3471.78783,0.73864
3469.85906,0.73940
3467.93029,0.74011
3466.00152,0.74076
3464.07275,0.74139
3462.14398,0.74202
3460.21521,0.74264
3458.28644,0.74323
3456.35767,0.74379
3454.42889,0.74433
3452.50012,0.74483
3450.57135,0.74524
3448.64258,0.74559
3446.71381,0.74595
3444.78504,0.74629
3442.85627,0.74652
3440.92750,0.74668
3438.99873,0.74681
3437.06996,0.74688
3435.14118,0.74682
3433.21241,0.74663
3431.28364,0.74637
3429.35487,0.74606
3427.42610,0.74568
3425.49733,0.74521
3423.56856,0.74467
3421.63979,0.74412
3419.71102,0.74352
3417.78225,0.74287
3415.85347,0.74215
3413.92470,0.74137
3411.99593,0.74053
3410.06716,0.73966
3408.13839,0.73875
3406.20962,0.73780
3404.28085,0.73683
3402.35208,0.73584
3400.42331,0.73480
3398.49454,0.73369
3396.56576,0.73254
3394.63699,0.73139
3392.70822,0.73020
3390.77945,0.72894
3388.85068,0.72762
3386.92191,0.72623
3384.99314,0.72476
3383.06437,0.72324
3381.13560,0.72167
3379.20683,0.72001
3377.27805,0.71828
3375.34928,0.71647
3373.42051,0.71459
3371.49174,0.71263
3369.56297,0.71063
3367.63420,0.70859
3365.70543,0.70655
3363.77666,0.70454
3361.84789,0.70254
3359.91912,0.70055
3357.99034,0.69858
3356.06157,0.69666
3354.13280,0.69478
3352.20403,0.69293
3350.27526,0.69111
3348.34649,0.68933
3346.41772,0.68759
3344.48895,0.68589
3342.56018,0.68423
3340.63140,0.68260
3338.70263,0.68100
3336.77386,0.67943
3334.84509,0.67790
3332.91632,0.67643
3330.98755,0.67498
3329.05878,0.67354
3327.13001,0.67210
3325.20124,0.67070
3323.27247,0.66938
3321.34369,0.66810
3319.41492,0.66684
3317.48615,0.66558
3315.55738,0.66434
3313.62861,0.66313
3311.69984,0.66196
3309.77107,0.66082
3307.84230,0.65970
3305.91353,0.65864
3303.98476,0.65762
3302.05598,0.65662
3300.12721,0.65563
3298.19844,0.65464
3296.26967,0.65368
3294.34090,0.65277
3292.41213,0.65191
3290.48336,0.65110
3288.55459,0.65031
3286.62582,0.64953
3284.69705,0.64875
3282.76827,0.64797
3280.83950,0.64721
3278.91073,0.64645
3276.98196,0.64570
3275.05319,0.64495
3273.12442,0.64420
3271.19565,0.64347
3269.26688,0.64279
3267.33811,0.64211
3265.40934,0.64140
3263.48056,0.64067
3261.55179,0.63993
3259.62302,0.63918
3257.69425,0.63843
3255.76548,0.63767
3253.83671,0.63689
3251.90794,0.63609
3249.97917,0.63526
3248.05040,0.63442
3246.12162,0.63357
3244.19285,0.63274
3242.26408,0.63192
3240.33531,0.63109
3238.40654,0.63021
3236.47777,0.62928
3234.54900,0.62834
3232.62023,0.62746
3230.69146,0.62660
3228.76269,0.62574
3226.83391,0.62486
3224.90514,0.62398
3222.97637,0.62310
3221.04760,0.62220
3219.11883,0.62131
3217.19006,0.62046
3215.26129,0.61961
3213.33252,0.61874
3211.40375,0.61788
3209.47498,0.61703
3207.54620,0.61618
3205.61743,0.61534
3203.68866,0.61449
3201.75989,0.61362
3199.83112,0.61272
3197.90235,0.61181
3195.97358,0.61093
3194.04481,0.61007
3192.11604,0.60922
3190.18727,0.60836
3188.25849,0.60750
3186.32972,0.60665
3184.40095,0.60583
3182.47218,0.60502
3180.54341,0.60420
3178.61464,0.60337
3176.68587,0.60256
3174.75710,0.60176
3172.82833,0.60098
3170.89956,0.60023
3168.97078,0.59946
3167.04201,0.59869
3165.11324,0.59794
3163.18447,0.59721
3161.25570,0.59647
3159.32693,0.59572
3157.39816,0.59498
3155.46939,0.59424
3153.54062,0.59351
3151.61185,0.59279
3149.68307,0.59212
3147.75430,0.59147
3145.82553,0.59081
3143.89676,0.59013
3141.96799,0.58942
3140.03922,0.58870
3138.11045,0.58804
3136.18168,0.58741
3134.25291,0.58677
3132.32413,0.58613
3130.39536,0.58551
3128.46659,0.58490
3126.53782,0.58426
3124.60905,0.58362
3122.68028,0.58294
3120.75151,0.58225
3118.82274,0.58159
3116.89397,0.58098
3114.96520,0.58040
3113.03642,0.57984
3111.10765,0.57925
3109.17888,0.57866
3107.25011,0.57807
3105.32134,0.57748
3103.39257,0.57687
3101.46380,0.57627
3099.53503,0.57570
3097.60626,0.57515
3095.67749,0.57459
3093.74871,0.57402
3091.81994,0.57341
3089.89117,0.57281
3087.96240,0.57221
3086.03363,0.57163
3084.10486,0.57105
3082.17609,0.57046
3080.24732,0.56989
3078.31855,0.56936
3076.38978,0.56889
3074.46100,0.56842
3072.53223,0.56789
3070.60346,0.56732
3068.67469,0.56675
3066.74592,0.56619
3064.81715,0.56567
3062.88838,0.56518
3060.95961,0.56469
3059.03084,0.56417
3057.10207,0.56363
3055.17329,0.56308
3053.24452,0.56253
3051.31575,0.56200
3049.38698,0.56150
3047.45821,0.56100
3045.52944,0.56048
3043.60067,0.55998
3041.67190,0.55952
3039.74313,0.55907
3037.81435,0.55862
3035.88558,0.55815
3033.95681,0.55770
3032.02804,0.55726
3030.09927,0.55683
3028.17050,0.55642
3026.24173,0.55601
3024.31296,0.55560
3022.38419,0.55521
3020.45542,0.55484
3018.52664,0.55447
3016.59787,0.55411
3014.66910,0.55376
3012.74033,0.55347
3010.81156,0.55324
3008.88279,0.55304
3006.95402,0.55281
3005.02525,0.55254
3003.09648,0.55227
3001.16771,0.55199
2999.23893,0.55170
2997.31016,0.55143
2995.38139,0.55119
2993.45262,0.55099
2991.52385,0.55085
2989.59508,0.55078
2987.66631,0.55072
2985.73754,0.55066
2983.80877,0.55062
2981.88000,0.55063
2979.95122,0.55071
2978.02245,0.55089
2976.09368,0.55116
2974.16491,0.55155
2972.23614,0.55212
2970.30737,0.55286
2968.37860,0.55369
2966.44983,0.55453
2964.52106,0.55532
2962.59229,0.55596
2960.66351,0.55638
2958.73474,0.55650
2956.80597,0.55631
2954.87720,0.55585
2952.94843,0.55525
2951.01966,0.55464
2949.09089,0.55413
2947.16212,0.55383
2945.23335,0.55390
2943.30457,0.55443
2941.37580,0.55543
2939.44703,0.55682
2937.51826,0.55852
2935.58949,0.56046
2933.66072,0.56254
2931.73195,0.56464
2929.80318,0.56664
2927.87441,0.56840
2925.94564,0.56971
2924.01686,0.57038
2922.08809,0.57025
2920.15932,0.56912
2918.23055,0.56685
2916.30178,0.56346
2914.37301,0.55941
2912.44424,0.55541
2910.51547,0.55199
2908.58670,0.54928
2906.65793,0.54713
2904.72915,0.54532
2902.80038,0.54373
2900.87161,0.54226
2898.94284,0.54086
2897.01407,0.53953
2895.08530,0.53830
2893.15653,0.53715
2891.22776,0.53608
2889.29899,0.53507
2887.37022,0.53417
2885.44144,0.53339
2883.51267,0.53277
2881.58390,0.53230
2879.65513,0.53196
2877.72636,0.53172
2875.79759,0.53152
2873.86882,0.53136
2871.94005,0.53120
2870.01128,0.53102
2868.08251,0.53088
2866.15373,0.53089
2864.22496,0.53121
2862.29619,0.53191
2860.36742,0.53304
2858.43865,0.53446
2856.50988,0.53581
2854.58111,0.53663
2852.65234,0.53651
2850.72357,0.53516
2848.79480,0.53255
2846.86602,0.52924
2844.93725,0.52600
2843.00848,0.52330
2841.07971,0.52115
2839.15094,0.51943
2837.22217,0.51800
2835.29340,0.51677
2833.36463,0.51566
2831.43586,0.51467
2829.50708,0.51379
2827.57831,0.51300
2825.64954,0.51228
2823.72077,0.51162
2821.79200,0.51099
2819.86323,0.51039
2817.93446,0.50983
2816.00569,0.50928
2814.07692,0.50874
2812.14815,0.50820
2810.21937,0.50768
2808.29060,0.50719
2806.36183,0.50671
2804.43306,0.50622
2802.50429,0.50572
2800.57552,0.50523
2798.64675,0.50475
2796.71798,0.50430
2794.78921,0.50386
2792.86044,0.50340
2790.93166,0.50294
2789.00289,0.50251
2787.07412,0.50209
2785.14535,0.50166
2783.21658,0.50123
2781.28781,0.50081
2779.35904,0.50037
2777.43027,0.49992
2775.50150,0.49948
2773.57273,0.49907
2771.64395,0.49867
2769.71518,0.49825
2767.78641,0.49783
2765.85764,0.49742
2763.92887,0.49702
2762.00010,0.49664
2760.07133,0.49625
2758.14256,0.49585
2756.21379,0.49544
2754.28502,0.49503
2752.35624,0.49462
2750.42747,0.49422
2748.49870,0.49384
2746.56993,0.49347
2744.64116,0.49310
2742.71239,0.49271
2740.78362,0.49232
2738.85485,0.49192
2736.92608,0.49153
2734.99730,0.49115
2733.06853,0.49077
2731.13976,0.49038
2729.21099,0.48997
2727.28222,0.48956
2725.35345,0.48916
2723.42468,0.48877
2721.49591,0.48837
2719.56714,0.48797
2717.63837,0.48757
2715.70959,0.48716
2713.78082,0.48675
2711.85205,0.48634
2709.92328,0.48594
2707.99451,0.48554
2706.06574,0.48516
2704.13697,0.48477
2702.20820,0.48439
2700.27943,0.48399
2698.35066,0.48360
2696.42188,0.48321
2694.49311,0.48284
2692.56434,0.48246
2690.63557,0.48208
2688.70680,0.48170
2686.77803,0.48133
2684.84926,0.48095
2682.92049,0.48056
2680.99172,0.48017
2679.06295,0.47980
2677.13417,0.47943
2675.20540,0.47906
2673.27663,0.47868
2671.34786,0.47831
2669.41909,0.47794
2667.49032,0.47756
2665.56155,0.47718
2663.63278,0.47679
2661.70401,0.47642
2659.77524,0.47605
2657.84646,0.47567
2655.91769,0.47529
2653.98892,0.47492
2652.06015,0.47454
2650.13138,0.47415
2648.20261,0.47376
2646.27384,0.47338
2644.34507,0.47299
2642.41630,0.47261
2640.48752,0.47222
2638.55875,0.47183
2636.62998,0.47145
2634.70121,0.47108
2632.77244,0.47069
2630.84367,0.47031
2628.91490,0.46993
2626.98613,0.46956
2625.05736,0.46919
2623.12859,0.46883
2621.19981,0.46845
2619.27104,0.46807
2617.34227,0.46770
2615.41350,0.46733
2613.48473,0.46695
2611.55596,0.46658
2609.62719,0.46622
2607.69842,0.46584
2605.76965,0.46546
2603.84088,0.46508
2601.91210,0.46473
2599.98333,0.46438
2598.05456,0.46402
2596.12579,0.46365
2594.19702,0.46327
2592.26825,0.46290
2590.33948,0.46253
2588.41071,0.46217
2586.48194,0.46182
2584.55317,0.46146
2582.62439,0.46108
2580.69562,0.46071
2578.76685,0.46035
2576.83808,0.45999
2574.90931,0.45963
2572.98054,0.45928
2571.05177,0.45891
2569.12300,0.45854
2567.19423,0.45819
2565.26546,0.45785
2563.33668,0.45750
2561.40791,0.45716
2559.47914,0.45681
2557.55037,0.45646
2555.62160,0.45610
2553.69283,0.45574
2551.76406,0.45538
2549.83529,0.45502
2547.90652,0.45467
2545.97775,0.45431
2544.04897,0.45395
2542.12020,0.45358
2540.19143,0.45321
2538.26266,0.45284
2536.33389,0.45249
2534.40512,0.45214
2532.47635,0.45179
2530.54758,0.45145
2528.61881,0.45111
2526.69003,0.45076
2524.76126,0.45041
2522.83249,0.45005
2520.90372,0.44970
2518.97495,0.44934
2517.04618,0.44900
2515.11741,0.44864
2513.18864,0.44829
2511.25987,0.44794
2509.33110,0.44759
2507.40232,0.44724
2505.47355,0.44690
2503.54478,0.44654
2501.61601,0.44619
2499.68724,0.44583
2497.75847,0.44548
2495.82970,0.44513
2493.90093,0.44478
2491.97216,0.44444
2490.04339,0.44409
2488.11461,0.44374
2486.18584,0.44339
2484.25707,0.44304
2482.32830,0.44269
2480.39953,0.44235
2478.47076,0.44200
2476.54199,0.44165
2474.61322,0.44130
2472.68445,0.44095
2470.75568,0.44060
2468.82690,0.44026
2466.89813,0.43991
2464.96936,0.43957
2463.04059,0.43922
2461.11182,0.43888
2459.18305,0.43854
2457.25428,0.43820
2455.32551,0.43786
2453.39674,0.43752
2451.46797,0.43720
2449.53919,0.43687
2447.61042,0.43653
2445.68165,0.43618
2443.75288,0.43584
2441.82411,0.43551
2439.89534,0.43518
2437.96657,0.43485
2436.03780,0.43451
2434.10903,0.43417
2432.18025,0.43384
2430.25148,0.43352
2428.32271,0.43320
2426.39394,0.43287
2424.46517,0.43253
2422.53640,0.43218
2420.60763,0.43184
2418.67886,0.43150
2416.75009,0.43118
2414.82132,0.43085
2412.89254,0.43052
2410.96377,0.43019
2409.03500,0.42985
2407.10623,0.42951
2405.17746,0.42917
2403.24869,0.42884
2401.31992,0.42851
2399.39115,0.42819
2397.46238,0.42787
2395.53361,0.42754
2393.60483,0.42721
2391.67606,0.42689
2389.74729,0.42659
2387.81852,0.42633
2385.88975,0.42615
2383.96098,0.42604
2382.03221,0.42601
2380.10344,0.42603
2378.17467,0.42609
2376.24590,0.42618
2374.31712,0.42631
2372.38835,0.42650
2370.45958,0.42674
2368.53081,0.42696
2366.60204,0.42712
2364.67327,0.42717
2362.74450,0.42708
2360.81573,0.42680
2358.88696,0.42628
2356.95819,0.42554
2355.02941,0.42463
2353.10064,0.42363
2351.17187,0.42280
2349.24310,0.42240
2347.31433,0.42238
2345.38556,0.42252
2343.45679,0.42249
2341.52802,0.42221
2339.59925,0.42182
2337.67048,0.42142
2335.74170,0.42101
2333.81293,0.42061
2331.88416,0.42017
2329.95539,0.41969
2328.02662,0.41918
2326.09785,0.41868
2324.16908,0.41816
2322.24031,0.41758
2320.31154,0.41696
2318.38276,0.41635
2316.45399,0.41583
2314.52522,0.41539
2312.59645,0.41498
2310.66768,0.41453
2308.73891,0.41405
2306.81014,0.41355
2304.88137,0.41308
2302.95260,0.41265
2301.02383,0.41225
2299.09505,0.41185
2297.16628,0.41145
2295.23751,0.41105
2293.30874,0.41066
2291.37997,0.41026
2289.45120,0.40987
2287.52243,0.40948
2285.59366,0.40911
2283.66489,0.40876
2281.73612,0.40844
2279.80734,0.40813
2277.87857,0.40781
2275.94980,0.40749
2274.02103,0.40717
2272.09226,0.40686
2270.16349,0.40655
2268.23472,0.40622
2266.30595,0.40588
2264.37718,0.40555
2262.44841,0.40523
2260.51963,0.40490
2258.59086,0.40456
2256.66209,0.40423
2254.73332,0.40390
2252.80455,0.40358
2250.87578,0.40326
2248.94701,0.40295
2247.01824,0.40263
2245.08947,0.40231
2243.16070,0.40199
2241.23192,0.40166
2239.30315,0.40133
2237.37438,0.40101
2235.44561,0.40068
2233.51684,0.40035
2231.58807,0.40004
2229.65930,0.39973
2227.73053,0.39941
2225.80176,0.39908
2223.87298,0.39876
2221.94421,0.39845
2220.01544,0.39815
2218.08667,0.39785
2216.15790,0.39755
2214.22913,0.39724
2212.30036,0.39694
2210.37159,0.39663
2208.44282,0.39633
2206.51405,0.39604
2204.58527,0.39573
2202.65650,0.39542
2200.72773,0.39511
2198.79896,0.39480
2196.87019,0.39450
2194.94142,0.39421
2193.01265,0.39392
2191.08388,0.39363
2189.15511,0.39333
2187.22634,0.39304
2185.29756,0.39275
2183.36879,0.39246
2181.44002,0.39218
2179.51125,0.39189
2177.58248,0.39160
2175.65371,0.39131
2173.72494,0.39103
2171.79617,0.39075
2169.86740,0.39048
2167.93863,0.39019
2166.00985,0.38991
2164.08108,0.38963
2162.15231,0.38936
2160.22354,0.38907
2158.29477,0.38878
2156.36600,0.38850
2154.43723,0.38823
2152.50846,0.38797
2150.57969,0.38771
2148.65092,0.38744
2146.72214,0.38716
2144.79337,0.38689
2142.86460,0.38661
2140.93583,0.38633
2139.00706,0.38605
2137.07829,0.38578
2135.14952,0.38551
2133.22075,0.38523
2131.29198,0.38495
2129.36320,0.38467
2127.43443,0.38440
2125.50566,0.38413
2123.57689,0.38385
2121.64812,0.38357
2119.71935,0.38329
2117.79058,0.38301
2115.86181,0.38273
2113.93304,0.38245
2112.00427,0.38218
2110.07549,0.38191
2108.14672,0.38163
2106.21795,0.38137
2104.28918,0.38112
2102.36041,0.38085
2100.43164,0.38057
2098.50287,0.38031
2096.57410,0.38006
2094.64533,0.37980
2092.71656,0.37954
2090.78778,0.37928
2088.85901,0.37903
2086.93024,0.37878
2085.00147,0.37854
2083.07270,0.37829
2081.14393,0.37805
2079.21516,0.37780
2077.28639,0.37753
2075.35762,0.37726
2073.42885,0.37699
2071.50007,0.37672
2069.57130,0.37645
2067.64253,0.37618
2065.71376,0.37588
2063.78499,0.37558
2061.85622,0.37530
2059.92745,0.37503
2057.99868,0.37476
2056.06991,0.37449
2054.14114,0.37422
2052.21236,0.37393
2050.28359,0.37364
2048.35482,0.37336
2046.42605,0.37308
2044.49728,0.37280
2042.56851,0.37253
2040.63974,0.37225
2038.71097,0.37199
2036.78220,0.37174
2034.85343,0.37149
2032.92465,0.37123
2030.99588,0.37096
2029.06711,0.37070
2027.13834,0.37045
2025.20957,0.37019
2023.28080,0.36993
2021.35203,0.36967
2019.42326,0.36940
2017.49449,0.36912
2015.56571,0.36885
2013.63694,0.36860
2011.70817,0.36834
2009.77940,0.36806
2007.85063,0.36776
2005.92186,0.36745
2003.99309,0.36715
2002.06432,0.36685
2000.13555,0.36655
1998.20678,0.36624
1996.27800,0.36594
1994.34923,0.36563
1992.42046,0.36530
1990.49169,0.36498
1988.56292,0.36470
1986.63415,0.36443
1984.70538,0.36416
1982.77661,0.36389
1980.84784,0.36362
1978.91907,0.36334
1976.99029,0.36305
1975.06152,0.36276
1973.13275,0.36249
1971.20398,0.36222
1969.27521,0.36194
1967.34644,0.36163
1965.41767,0.36134
1963.48890,0.36108
1961.56013,0.36083
1959.63136,0.36056
1957.70258,0.36029
1955.77381,0.36001
1953.84504,0.35973
1951.91627,0.35946
1949.98750,0.35919
1948.05873,0.35892
1946.12996,0.35865
1944.20119,0.35835
1942.27242,0.35802
1940.34365,0.35776
1938.41487,0.35755
1936.48610,0.35730
1934.55733,0.35700
1932.62856,0.35669
1930.69979,0.35638
1928.77102,0.35607
1926.84225,0.35575
1924.91348,0.35542
1922.98471,0.35506
1921.05593,0.35474
1919.12716,0.35443
1917.19839,0.35409
1915.26962,0.35381
1913.34085,0.35357
1911.41208,0.35328
1909.48331,0.35295
1907.55454,0.35265
1905.62577,0.35239
1903.69700,0.35212
1901.76822,0.35183
1899.83945,0.35153
1897.91068,0.35123
1895.98191,0.35090
1894.05314,0.35058
1892.12437,0.35028
1890.19560,0.34994
1888.26683,0.34959
1886.33806,0.34932
1884.40929,0.34906
1882.48051,0.34877
1880.55174,0.34848
1878.62297,0.34819
1876.69420,0.34790
1874.76543,0.34764
1872.83666,0.34739
1870.90789,0.34708
1868.97912,0.34668
1867.05035,0.34634
1865.12158,0.34618
1863.19280,0.34605
1861.26403,0.34586
1859.33526,0.34564
1857.40649,0.34543
1855.47772,0.34522
1853.54895,0.34502
1851.62018,0.34483
1849.69141,0.34462
1847.76264,0.34442
1845.83387,0.34417
1843.90509,0.34385
1841.97632,0.34366
1840.04755,0.34360
1838.11878,0.34348
1836.19001,0.34329
1834.26124,0.34313
1832.33247,0.34294
1830.40370,0.34264
1828.47493,0.34235
1826.54615,0.34217
1824.61738,0.34197
1822.68861,0.34180
1820.75984,0.34167
1818.83107,0.34149
1816.90230,0.34127
1814.97353,0.34108
1813.04476,0.34088
1811.11599,0.34064
1809.18722,0.34044
1807.25844,0.34033
1805.32967,0.34024
1803.40090,0.34013
1801.47213,0.33997
1799.54336,0.33983
1797.61459,0.33980
1795.68582,0.33980
1793.75705,0.33975
1791.82828,0.33964
1789.89951,0.33970
1787.97073,0.33989
1786.04196,0.34003
1784.11319,0.34012
1782.18442,0.34022
1780.25565,0.34033
1778.32688,0.34048
1776.39811,0.34063
1774.46934,0.34069
1772.54057,0.34060
1770.61180,0.34058
1768.68302,0.34068
1766.75425,0.34077
1764.82548,0.34083
1762.89671,0.34078
1760.96794,0.34065
1759.03917,0.34061
1757.11040,0.34060
1755.18163,0.34066
1753.25286,0.34077
1751.32409,0.34083
1749.39531,0.34090
1747.46654,0.34116
1745.53777,0.34152
1743.60900,0.34184
1741.68023,0.34206
1739.75146,0.34213
1737.82269,0.34216
1735.89392,0.34205
1733.96515,0.34163
1732.03638,0.34135
1730.10760,0.34140
1728.17883,0.34154
1726.25006,0.34168
1724.32129,0.34181
1722.39252,0.34198
1720.46375,0.34215
1718.53498,0.34219
1716.60621,0.34220
1714.67744,0.34248
1712.74866,0.34284
1710.81989,0.34312
1708.89112,0.34326
1706.96235,0.34328
1705.03358,0.34331
1703.10481,0.34346
1701.17604,0.34359
1699.24727,0.34372
1697.31850,0.34409
1695.38973,0.34472
1693.46095,0.34550
1691.53218,0.34633
1689.60341,0.34728
1687.67464,0.34834
1685.74587,0.34961
1683.81710,0.35164
1681.88833,0.35393
1679.95956,0.35597
1678.03079,0.35800
1676.10202,0.36029
1674.17324,0.36281
1672.24447,0.36503
1670.31570,0.36730
1668.38693,0.36985
1666.45816,0.37194
1664.52939,0.37374
1662.60062,0.37580
1660.67185,0.37793
1658.74308,0.37965
1656.81431,0.38090
1654.88553,0.38199
1652.95676,0.38371
1651.02799,0.38544
1649.09922,0.38650
1647.17045,0.38757
1645.24168,0.38868
1643.31291,0.38943
1641.38414,0.38980
1639.45537,0.38988
1637.52660,0.38960
1635.59782,0.38897
1633.66905,0.38850
1631.74028,0.38818
1629.81151,0.38754
1627.88274,0.38654
1625.95397,0.38544
1624.02520,0.38419
1622.09643,0.38293
1620.16766,0.38204
1618.23888,0.38100
1616.31011,0.37921
1614.38134,0.37748
1612.45257,0.37612
1610.52380,0.37466
1608.59503,0.37308
1606.66626,0.37157
1604.73749,0.37015
1602.80872,0.36871
1600.87995,0.36728
1598.95117,0.36590
1597.02240,0.36453
1595.09363,0.36311
1593.16486,0.36171
1591.23609,0.36036
1589.30732,0.35904
1587.37855,0.35775
1585.44978,0.35650
1583.52101,0.35530
1581.59224,0.35414
1579.66346,0.35307
1577.73469,0.35179
1575.80592,0.35001
1573.87715,0.34862
1571.94838,0.34762
1570.01961,0.34626
1568.09084,0.34477
1566.16207,0.34365
1564.23330,0.34267
1562.30453,0.34184
1560.37575,0.34071
1558.44698,0.33859
1556.51821,0.33731
1554.58944,0.33671
1552.66067,0.33599
1550.73190,0.33518
1548.80313,0.33438
1546.87436,0.33368
1544.94559,0.33290
1543.01682,0.33195
1541.08804,0.33068
1539.15927,0.32927
1537.23050,0.32861
1535.30173,0.32811
1533.37296,0.32725
1531.44419,0.32645
1529.51542,0.32596
1527.58665,0.32541
1525.65788,0.32481
1523.72910,0.32432
1521.80033,0.32378
1519.87156,0.32333
1517.94279,0.32307
1516.01402,0.32284
1514.08525,0.32265
1512.15648,0.32248
1510.22771,0.32223
1508.29894,0.32177
1506.37017,0.32122
1504.44139,0.32120
1502.51262,0.32140
1500.58385,0.32147
1498.65508,0.32142
1496.72631,0.32136
1494.79754,0.32148
1492.86877,0.32166
1490.94000,0.32178
1489.01123,0.32194
1487.08246,0.32234
1485.15368,0.32291
1483.22491,0.32353
1481.29614,0.32424
1479.36737,0.32505
1477.43860,0.32597
1475.50983,0.32707
1473.58106,0.32861
1471.65229,0.33067
1469.72352,0.33246
1467.79475,0.33367
1465.86597,0.33446
1463.93720,0.33495
1462.00843,0.33531
1460.07966,0.33554
1458.15089,0.33561
1456.22212,0.33564
1454.29335,0.33577
1452.36458,0.33584
1450.43581,0.33579
1448.50704,0.33566
1446.57826,0.33557
1444.64949,0.33557
1442.72072,0.33559
1440.79195,0.33564
1438.86318,0.33570
1436.93441,0.33576
1435.00564,0.33590
1433.07687,0.33612
1431.14810,0.33630
1429.21933,0.33646
1427.29055,0.33666
1425.36178,0.33685
1423.43301,0.33703
1421.50424,0.33720
1419.57547,0.33725
1417.64670,0.33728
1415.71793,0.33739
1413.78916,0.33746
1411.86039,0.33740
1409.93161,0.33731
1408.00284,0.33722
1406.07407,0.33712
1404.14530,0.33704
1402.21653,0.33704
1400.28776,0.33699
1398.35899,0.33690
1396.43022,0.33686
1394.50145,0.33697
1392.57268,0.33731
1390.64390,0.33792
1388.71513,0.33901
1386.78636,0.34080
1384.85759,0.34242
1382.92882,0.34294
1381.00005,0.34266
1379.07128,0.34226
1377.14251,0.34188
1375.21374,0.34127
1373.28497,0.34057
1371.35619,0.34010
1369.42742,0.33983
1367.49865,0.33965
1365.56988,0.33946
1363.64111,0.33916
1361.71234,0.33886
1359.78357,0.33870
1357.85480,0.33859
1355.92603,0.33847
1353.99726,0.33834
1352.06848,0.33825
1350.13971,0.33818
1348.21094,0.33814
1346.28217,0.33814
1344.35340,0.33817
1342.42463,0.33819
1340.49586,0.33822
1338.56709,0.33833
1336.63832,0.33861
1334.70955,0.33899
1332.78077,0.33941
1330.85200,0.33987
1328.92323,0.34039
1326.99446,0.34095
1325.06569,0.34153
1323.13692,0.34212
1321.20815,0.34272
1319.27938,0.34331
1317.35061,0.34390
1315.42183,0.34450
1313.49306,0.34509
1311.56429,0.34569
1309.63552,0.34632
1307.70675,0.34699
1305.77798,0.34774
1303.84921,0.34859
1301.92044,0.34959
1299.99167,0.35079
1298.06290,0.35228
1296.13412,0.35415
1294.20535,0.35642
1292.27658,0.35904
1290.34781,0.36189
1288.41904,0.36483
1286.49027,0.36770
1284.56150,0.37037
1282.63273,0.37254
1280.70396,0.37381
1278.77519,0.37379
1276.84641,0.37244
1274.91764,0.37017
1272.98887,0.36771
1271.06010,0.36581
1269.13133,0.36483
1267.20256,0.36470
1265.27379,0.36519
1263.34502,0.36603
1261.41625,0.36704
1259.48748,0.36815
1257.55870,0.36933
1255.62993,0.37056
1253.70116,0.37189
1251.77239,0.37333
1249.84362,0.37487
1247.91485,0.37649
1245.98608,0.37815
1244.05731,0.37987
1242.12854,0.38166
1240.19977,0.38351
1238.27099,0.38545
1236.34222,0.38748
1234.41345,0.38957
1232.48468,0.39173
1230.55591,0.39401
1228.62714,0.39638
1226.69837,0.39885
1224.76960,0.40147
1222.84083,0.40425
1220.91206,0.40720
1218.98328,0.41031
1217.05451,0.41359
1215.12574,0.41708
1213.19697,0.42076
1211.26820,0.42464
1209.33943,0.42866
1207.41066,0.43279
1205.48189,0.43702
1203.55312,0.44135
1201.62434,0.44577
1199.69557,0.45030
1197.76680,0.45494
1195.83803,0.45970
1193.90926,0.46457
1191.98049,0.46957
1190.05172,0.47468
1188.12295,0.47992
1186.19418,0.48528
1184.26541,0.49073
1182.33663,0.49623
1180.40786,0.50177
1178.47909,0.50732
1176.55032,0.51286
1174.62155,0.51842
1172.69278,0.52400
1170.76401,0.52950
1168.83524,0.53490
1166.90647,0.54017
1164.97770,0.54524
1163.04892,0.55010
1161.12015,0.55481
1159.19138,0.55945
1157.26261,0.56411
1155.33384,0.56885
1153.40507,0.57369
1151.47630,0.57866
1149.54753,0.58382
1147.61876,0.58927
1145.68999,0.59509
1143.76121,0.60118
1141.83244,0.60731
1139.90367,0.61326
1137.97490,0.61917
1136.04613,0.62548
1134.11736,0.63276
1132.18859,0.64134
1130.25982,0.65121
1128.33105,0.66202
1126.40228,0.67317
1124.47350,0.68384
1122.54473,0.69287
1120.61596,0.69949
1118.68719,0.70396
1116.75842,0.70764
1114.82965,0.71213
1112.90088,0.71833
1110.97211,0.72648
1109.04334,0.73644
1107.11456,0.74808
1105.18579,0.76116
1103.25702,0.77544
1101.32825,0.79053
1099.39948,0.80598
1097.47071,0.82130
1095.54194,0.83605
1093.61317,0.85000
1091.68440,0.86288
1089.75563,0.87452
1087.82685,0.88494
1085.89808,0.89421
1083.96931,0.90239
1082.04054,0.90949
1080.11177,0.91574
1078.18300,0.92123
1076.25423,0.92617
1074.32546,0.93073
1072.39669,0.93486
1070.46792,0.93854
1068.53914,0.94176
1066.61037,0.94463
1064.68160,0.94713
1062.75283,0.94933
1060.82406,0.95105
1058.89529,0.95193
1056.96652,0.95171
1055.03775,0.95026
1053.10898,0.94766
1051.18021,0.94387
1049.25143,0.93884
1047.32266,0.93268
1045.39389,0.92601
1043.46512,0.91990
1041.53635,0.91529
1039.60758,0.91283
1037.67881,0.91295
1035.75004,0.91588
1033.82127,0.92136
1031.89250,0.92866
1029.96372,0.93698
1028.03495,0.94554
1026.10618,0.95387
1024.17741,0.96191
1022.24864,0.97011
1020.31987,0.97898
1018.39110,0.98873
1016.46233,0.99924
1014.53356,1.01032
1012.60478,1.02197
1010.67601,1.03411
1008.74724,1.04650
1006.81847,1.05864
1004.88970,1.06981
1002.96093,1.07923
1001.03216,1.08613
999.10339,1.09019
997.17462,1.09160
995.24585,1.09117
993.31707,1.09010
991.38830,1.08986
989.45953,1.09163
987.53076,1.09585
985.60199,1.10244
983.67322,1.11081
981.74445,1.12029
979.81568,1.13040
977.88691,1.14062
975.95814,1.14979
974.02936,1.15569
972.10059,1.15570
970.17182,1.14803
968.24305,1.13295
966.31428,1.11281
964.38551,1.09087
962.45674,1.07037
960.52797,1.05404
958.59920,1.04472
956.67043,1.04585
954.74165,1.05989
952.81288,1.08460
950.88411,1.11120
948.95534,1.12908
947.02657,1.13392
945.09780,1.12923
943.16903,1.12078
941.24026,1.11276
939.31149,1.10718
937.38272,1.10464
935.45394,1.10502
933.52517,1.10793
931.59640,1.11285
929.66763,1.11896
927.73886,1.12516
925.81009,1.13026
923.88132,1.13303
921.95255,1.13256
920.02378,1.12880
918.09501,1.12291
916.16623,1.11691
914.23746,1.11262
912.30869,1.11099
910.37992,1.11235
908.45115,1.11716
906.52238,1.12613
904.59361,1.13975
902.66484,1.15771
900.73607,1.17897
898.80729,1.20214
896.87852,1.22585
894.94975,1.24916
893.02098,1.27148
891.09221,1.29197
889.16344,1.30909
887.23467,1.32074
885.30590,1.32470
883.37713,1.31913
881.44836,1.30366
879.51958,1.27962
877.59081,1.24911
875.66204,1.21415
873.73327,1.17643
871.80450,1.13774
869.87573,1.09949
867.94696,1.06239
866.01819,1.02658
864.08942,0.99204
862.16065,0.95883
860.23187,0.92693
858.30310,0.89620
856.37433,0.86629
854.44556,0.83677
852.51679,0.80749
850.58802,0.77894
848.65925,0.75240
846.73048,0.73019
844.80171,0.71538
842.87294,0.70974
840.94416,0.71105
839.01539,0.71237
837.08662,0.70586
835.15785,0.68856
833.22908,0.66338
831.30031,0.63539
829.37154,0.60801
827.44277,0.58250
825.51400,0.55905
823.58523,0.53760
821.65645,0.51799
819.72768,0.50005
817.79891,0.48375
815.87014,0.46898
813.94137,0.45572
812.01260,0.44394
810.08383,0.43348
808.15506,0.42409
806.22629,0.41561
804.29751,0.40794
802.36874,0.40082
800.43997,0.39397
798.51120,0.38721
796.58243,0.38052
794.65366,0.37392
792.72489,0.36752
790.79612,0.36141
788.86735,0.35562
786.93858,0.35015
785.00980,0.34497
783.08103,0.34000
781.15226,0.33508
779.22349,0.33007
777.29472,0.32496
775.36595,0.31983
773.43718,0.31487
771.50841,0.31024
769.57964,0.30604
767.65087,0.30225
765.72209,0.29881
763.79332,0.29566
761.86455,0.29279
759.93578,0.29021
758.00701,0.28792
756.07824,0.28594
754.14947,0.28441
752.22070,0.28357
750.29193,0.28368
748.36316,0.28498
746.43438,0.28725
744.50561,0.28930
742.57684,0.28974
740.64807,0.28863
738.71930,0.28761
736.79053,0.28837
734.86176,0.29155
732.93299,0.29693
731.00422,0.30371
729.07545,0.31022
727.14667,0.31400
725.21790,0.31330
723.28913,0.30841
721.36036,0.30094
719.43159,0.29273
717.50282,0.28540
715.57405,0.27946
713.64528,0.27477
711.71651,0.27126
709.78773,0.26880
707.85896,0.26723
705.93019,0.26643
704.00142,0.26636
702.07265,0.26710
700.14388,0.26882
698.21511,0.27170
696.28634,0.27590
694.35757,0.28143
692.42880,0.28806
690.50002,0.29499
688.57125,0.30085
686.64248,0.30412
684.71371,0.30417
682.78494,0.30183
680.85617,0.29857
678.92740,0.29556
676.99863,0.29296
675.06986,0.29030
673.14109,0.28751
671.21231,0.28526
669.28354,0.28377
667.35477,0.28349
665.42600,0.28506
663.49723,0.28849
661.56846,0.29431
659.63969,0.30259
657.71092,0.31310
655.78215,0.32560
653.85338,0.33951
651.92460,0.35409
649.99583,0.36887
648.06706,0.38344
646.13829,0.39680
644.20952,0.40758
642.28075,0.41418
640.35198,0.41564
638.42321,0.41246
636.49444,0.40657
634.56567,0.40026
632.63689,0.39529
630.70812,0.39264
628.77935,0.39267
626.85058,0.39560
624.92181,0.40139
622.99304,0.40982
621.06427,0.42042
619.13550,0.43307
617.20673,0.44767
615.27796,0.46319
613.34918,0.47876
611.42041,0.49416
609.49164,0.50914
607.56287,0.52324
605.63410,0.53618
603.70533,0.54778
601.77656,0.55776
599.84779,0.56577
597.91902,0.57125
595.99024,0.57404
594.06147,0.57373
592.13270,0.56985
590.20393,0.56263
588.27516,0.55318
586.34639,0.54294
584.41762,0.53334
582.48885,0.52595
580.56008,0.52177
578.63131,0.52134
576.70253,0.52461
574.77376,0.53135
572.84499,0.54127
570.91622,0.55391
568.98745,0.56874
567.05868,0.58476
565.12991,0.60080
563.20114,0.61605
561.27237,0.63050
559.34360,0.64480
557.41482,0.65991
555.48605,0.67724
553.55728,0.69772
551.62851,0.72155
549.69974,0.74828
547.77097,0.77714
545.84220,0.80650
543.91343,0.83331
541.98466,0.85533
540.05589,0.87170
538.12711,0.88269
536.19834,0.88875
534.26957,0.89008
532.34080,0.88793
530.41203,0.88569
528.48326,0.88896
526.55449,0.90230
524.62572,0.92494
522.69695,0.95027
520.76818,0.97387
518.83940,0.99435
516.91063,1.01041
514.98186,1.02237
513.05309,1.03181
511.12432,1.03966
509.19555,1.04506
507.26678,1.04844
505.33801,1.05178
503.40924,1.05476
501.48046,1.05531
499.55169,1.05119
497.62292,1.04014
495.69415,1.01994
493.76538,0.99070
491.83661,0.95485
489.90784,0.91634
487.97907,0.87850
486.05030,0.84148
484.12153,0.80538
482.19275,0.77301
480.26398,0.74642
478.33521,0.72495
476.40644,0.70825
474.47767,0.69660
472.54890,0.69002
470.62013,0.68818
468.69136,0.68883
466.76259,0.68943
464.83382,0.68947
462.90504,0.68988
460.97627,0.69073
459.04750,0.69103
457.11873,0.69013
455.18996,0.68875
453.26119,0.68777
451.33242,0.68749
449.40365,0.68830
447.47488,0.69040
445.54611,0.69366
443.61733,0.69771
441.68856,0.70264
439.75979,0.70873
437.83102,0.71658
435.90225,0.72699
433.97348,0.73962
432.04471,0.75386
430.11594,0.76932
428.18717,0.78532
426.25840,0.80128
424.32962,0.81663
422.40085,0.83063
420.47208,0.84583
418.54331,0.86726
416.61454,0.88793
414.68577,0.90349
412.75700,0.91806
410.82823,0.93022
408.89946,0.93628
406.97069,0.93293
405.04191,0.92001
403.11314,0.90236
401.18437,0.88477
399.25560,0.86510
397.32683,0.83831
395.39806,0.81084
393.46929,0.78947
391.54052,0.77069
389.61175,0.75028
387.68297,0.72884
385.75420,0.70727
383.82543,0.68661
381.89666,0.66842
379.96789,0.65335
378.03912,0.64603
376.11035,0.65316
374.18158,0.66926
372.25281,0.67591
370.32404,0.67456
368.39526,0.66969
366.46649,0.66730
364.53772,0.67487
362.60895,0.68970
360.68018,0.70262
358.75141,0.69990
356.82264,0.67936
354.89387,0.67266
352.96510,0.71321
351.03633,0.76140
349.10755,0.72283
