# 25 FEB 2015 - B.L. de Vries
# Bremenv√∂rde, H3, Sample 3, Take 1
# m = 1.5 mgr, KBr = 525 mgr
# Signal = 6500
# Resolution / sample scan time / bg scan time / range = 4 / 64 / 64 / 4000-300
# Source: glow-bar, Machine: Equinox 55, DTGS
# k(cm-1), absorbance
3996.41355,0.72906
3994.48478,0.72863
3992.55601,0.72821
3990.62724,0.72780
3988.69847,0.72743
3986.76970,0.72724
3984.84093,0.72709
3982.91215,0.72675
3980.98338,0.72630
3979.05461,0.72597
3977.12584,0.72574
3975.19707,0.72542
3973.26830,0.72500
3971.33953,0.72462
3969.41076,0.72421
3967.48199,0.72382
3965.55322,0.72366
3963.62444,0.72354
3961.69567,0.72316
3959.76690,0.72273
3957.83813,0.72244
3955.90936,0.72213
3953.98059,0.72196
3952.05182,0.72197
3950.12305,0.72159
3948.19428,0.72074
3946.26550,0.72049
3944.33673,0.72057
3942.40796,0.71963
3940.47919,0.71864
3938.55042,0.71869
3936.62165,0.71927
3934.69288,0.71977
3932.76411,0.71918
3930.83534,0.71760
3928.90657,0.71703
3926.97779,0.71748
3925.04902,0.71719
3923.12025,0.71648
3921.19148,0.71671
3919.26271,0.71677
3917.33394,0.71537
3915.40517,0.71391
3913.47640,0.71383
3911.54763,0.71434
3909.61886,0.71501
3907.69008,0.71633
3905.76131,0.71705
3903.83254,0.71537
3901.90377,0.71268
3899.97500,0.71056
3898.04623,0.70957
3896.11746,0.71081
3894.18869,0.71300
3892.25992,0.71261
3890.33115,0.71052
3888.40237,0.71104
3886.47360,0.71166
3884.54483,0.71010
3882.61606,0.70970
3880.68729,0.70894
3878.75852,0.70753
3876.82975,0.70870
3874.90098,0.71001
3872.97221,0.70988
3871.04344,0.70877
3869.11466,0.70644
3867.18589,0.70620
3865.25712,0.70693
3863.32835,0.70537
3861.39958,0.70417
3859.47081,0.70556
3857.54204,0.70884
3855.61327,0.71137
3853.68450,0.70641
3851.75572,0.69881
3849.82695,0.69888
3847.89818,0.70197
3845.96941,0.70437
3844.04064,0.70516
3842.11187,0.70508
3840.18310,0.70466
3838.25433,0.70232
3836.32556,0.69965
3834.39679,0.69931
3832.46801,0.69956
3830.53924,0.69958
3828.61047,0.70012
3826.68170,0.70050
3824.75293,0.70145
3822.82416,0.70237
3820.89539,0.69955
3818.96662,0.69734
3817.03785,0.69739
3815.10908,0.69551
3813.18030,0.69495
3811.25153,0.69716
3809.32276,0.69916
3807.39399,0.69818
3805.46522,0.69672
3803.53645,0.69763
3801.60768,0.69612
3799.67891,0.69324
3797.75014,0.69317
3795.82137,0.69294
3793.89259,0.69259
3791.96382,0.69328
3790.03505,0.69379
3788.10628,0.69395
3786.17751,0.69362
3784.24874,0.69280
3782.31997,0.69280
3780.39120,0.69259
3778.46243,0.69087
3776.53366,0.69006
3774.60488,0.69108
3772.67611,0.69234
3770.74734,0.69191
3768.81857,0.69004
3766.88980,0.68905
3764.96103,0.68876
3763.03226,0.68937
3761.10349,0.69037
3759.17472,0.68932
3757.24594,0.68800
3755.31717,0.68946
3753.38840,0.69178
3751.45963,0.69019
3749.53086,0.68601
3747.60209,0.68647
3745.67332,0.68743
3743.74455,0.68366
3741.81578,0.68244
3739.88701,0.68589
3737.95823,0.68897
3736.02946,0.68781
3734.10069,0.68349
3732.17192,0.68101
3730.24315,0.68178
3728.31438,0.68380
3726.38561,0.68446
3724.45684,0.68346
3722.52807,0.68237
3720.59930,0.68149
3718.67052,0.68124
3716.74175,0.68233
3714.81298,0.68452
3712.88421,0.68520
3710.95544,0.68187
3709.02667,0.67889
3707.09790,0.67926
3705.16913,0.68117
3703.24036,0.68203
3701.31159,0.68068
3699.38281,0.67979
3697.45404,0.68047
3695.52527,0.68165
3693.59650,0.68324
3691.66773,0.68435
3689.73896,0.68227
3687.81019,0.67878
3685.88142,0.67868
3683.95265,0.68083
3682.02388,0.68281
3680.09510,0.68440
3678.16633,0.68593
3676.23756,0.68415
3674.30879,0.67994
3672.38002,0.68014
3670.45125,0.68018
3668.52248,0.67733
3666.59371,0.67709
3664.66494,0.67880
3662.73617,0.67987
3660.80739,0.68067
3658.87862,0.68175
3656.94985,0.68144
3655.02108,0.68065
3653.09231,0.68276
3651.16354,0.68507
3649.23477,0.68197
3647.30600,0.67756
3645.37723,0.67789
3643.44845,0.68028
3641.51968,0.68198
3639.59091,0.68274
3637.66214,0.68356
3635.73337,0.68460
3633.80460,0.68593
3631.87583,0.68817
3629.94706,0.68864
3628.01829,0.68494
3626.08952,0.68409
3624.16074,0.68722
3622.23197,0.69062
3620.30320,0.69195
3618.37443,0.69108
3616.44566,0.69144
3614.51689,0.69322
3612.58812,0.69446
3610.65935,0.69561
3608.73058,0.69635
3606.80181,0.69658
3604.87303,0.69814
3602.94426,0.70058
3601.01549,0.70214
3599.08672,0.70309
3597.15795,0.70439
3595.22918,0.70537
3593.30041,0.70621
3591.37164,0.70835
3589.44287,0.71069
3587.51410,0.71046
3585.58532,0.70957
3583.65655,0.71105
3581.72778,0.71335
3579.79901,0.71498
3577.87024,0.71609
3575.94147,0.71706
3574.01270,0.71810
3572.08393,0.71984
3570.15516,0.72225
3568.22639,0.72322
3566.29761,0.72171
3564.36884,0.72126
3562.44007,0.72278
3560.51130,0.72424
3558.58253,0.72524
3556.65376,0.72649
3554.72499,0.72785
3552.79622,0.72860
3550.86745,0.72914
3548.93867,0.73032
3547.00990,0.73123
3545.08113,0.73125
3543.15236,0.73163
3541.22359,0.73291
3539.29482,0.73439
3537.36605,0.73535
3535.43728,0.73588
3533.50851,0.73675
3531.57974,0.73808
3529.65096,0.73923
3527.72219,0.74000
3525.79342,0.74074
3523.86465,0.74137
3521.93588,0.74197
3520.00711,0.74291
3518.07834,0.74409
3516.14957,0.74520
3514.22080,0.74630
3512.29203,0.74733
3510.36325,0.74797
3508.43448,0.74846
3506.50571,0.74943
3504.57694,0.75049
3502.64817,0.75096
3500.71940,0.75144
3498.79063,0.75238
3496.86186,0.75318
3494.93309,0.75370
3493.00432,0.75434
3491.07554,0.75522
3489.14677,0.75602
3487.21800,0.75661
3485.28923,0.75727
3483.36046,0.75790
3481.43169,0.75821
3479.50292,0.75857
3477.57415,0.75936
3475.64538,0.76021
3473.71661,0.76082
3471.78783,0.76135
3469.85906,0.76191
3467.93029,0.76246
3466.00152,0.76302
3464.07275,0.76363
3462.14398,0.76417
3460.21521,0.76459
3458.28644,0.76499
3456.35767,0.76538
3454.42889,0.76579
3452.50012,0.76626
3450.57135,0.76685
3448.64258,0.76724
3446.71381,0.76714
3444.78504,0.76697
3442.85627,0.76698
3440.92750,0.76696
3438.99873,0.76695
3437.06996,0.76693
3435.14118,0.76673
3433.21241,0.76634
3431.28364,0.76579
3429.35487,0.76519
3427.42610,0.76462
3425.49733,0.76412
3423.56856,0.76359
3421.63979,0.76276
3419.71102,0.76159
3417.78225,0.76047
3415.85347,0.75950
3413.92470,0.75853
3411.99593,0.75750
3410.06716,0.75639
3408.13839,0.75519
3406.20962,0.75392
3404.28085,0.75258
3402.35208,0.75121
3400.42331,0.74992
3398.49454,0.74864
3396.56576,0.74728
3394.63699,0.74582
3392.70822,0.74418
3390.77945,0.74245
3388.85068,0.74086
3386.92191,0.73930
3384.99314,0.73758
3383.06437,0.73569
3381.13560,0.73372
3379.20683,0.73164
3377.27805,0.72947
3375.34928,0.72729
3373.42051,0.72513
3371.49174,0.72295
3369.56297,0.72067
3367.63420,0.71824
3365.70543,0.71573
3363.77666,0.71330
3361.84789,0.71099
3359.91912,0.70879
3357.99034,0.70664
3356.06157,0.70443
3354.13280,0.70219
3352.20403,0.69999
3350.27526,0.69791
3348.34649,0.69594
3346.41772,0.69404
3344.48895,0.69217
3342.56018,0.69028
3340.63140,0.68840
3338.70263,0.68655
3336.77386,0.68476
3334.84509,0.68305
3332.91632,0.68148
3330.98755,0.67996
3329.05878,0.67836
3327.13001,0.67670
3325.20124,0.67508
3323.27247,0.67359
3321.34369,0.67222
3319.41492,0.67090
3317.48615,0.66959
3315.55738,0.66827
3313.62861,0.66693
3311.69984,0.66562
3309.77107,0.66435
3307.84230,0.66314
3305.91353,0.66205
3303.98476,0.66104
3302.05598,0.66000
3300.12721,0.65893
3298.19844,0.65787
3296.26967,0.65689
3294.34090,0.65602
3292.41213,0.65519
3290.48336,0.65432
3288.55459,0.65343
3286.62582,0.65256
3284.69705,0.65173
3282.76827,0.65096
3280.83950,0.65025
3278.91073,0.64958
3276.98196,0.64882
3275.05319,0.64795
3273.12442,0.64706
3271.19565,0.64629
3269.26688,0.64568
3267.33811,0.64512
3265.40934,0.64446
3263.48056,0.64373
3261.55179,0.64296
3259.62302,0.64217
3257.69425,0.64141
3255.76548,0.64069
3253.83671,0.63993
3251.90794,0.63913
3249.97917,0.63832
3248.05040,0.63749
3246.12162,0.63661
3244.19285,0.63569
3242.26408,0.63483
3240.33531,0.63403
3238.40654,0.63316
3236.47777,0.63220
3234.54900,0.63122
3232.62023,0.63030
3230.69146,0.62946
3228.76269,0.62864
3226.83391,0.62780
3224.90514,0.62693
3222.97637,0.62605
3221.04760,0.62511
3219.11883,0.62418
3217.19006,0.62336
3215.26129,0.62258
3213.33252,0.62176
3211.40375,0.62091
3209.47498,0.62003
3207.54620,0.61914
3205.61743,0.61829
3203.68866,0.61748
3201.75989,0.61671
3199.83112,0.61593
3197.90235,0.61505
3195.97358,0.61410
3194.04481,0.61323
3192.11604,0.61242
3190.18727,0.61165
3188.25849,0.61092
3186.32972,0.61017
3184.40095,0.60932
3182.47218,0.60848
3180.54341,0.60772
3178.61464,0.60696
3176.68587,0.60620
3174.75710,0.60550
3172.82833,0.60482
3170.89956,0.60408
3168.97078,0.60332
3167.04201,0.60259
3165.11324,0.60192
3163.18447,0.60129
3161.25570,0.60066
3159.32693,0.60000
3157.39816,0.59930
3155.46939,0.59856
3153.54062,0.59785
3151.61185,0.59724
3149.68307,0.59670
3147.75430,0.59616
3145.82553,0.59556
3143.89676,0.59489
3141.96799,0.59419
3140.03922,0.59353
3138.11045,0.59299
3136.18168,0.59253
3134.25291,0.59201
3132.32413,0.59134
3130.39536,0.59067
3128.46659,0.59012
3126.53782,0.58961
3124.60905,0.58908
3122.68028,0.58851
3120.75151,0.58792
3118.82274,0.58733
3116.89397,0.58673
3114.96520,0.58615
3113.03642,0.58564
3111.10765,0.58516
3109.17888,0.58468
3107.25011,0.58418
3105.32134,0.58368
3103.39257,0.58313
3101.46380,0.58251
3099.53503,0.58195
3097.60626,0.58151
3095.67749,0.58103
3093.74871,0.58044
3091.81994,0.57984
3089.89117,0.57927
3087.96240,0.57875
3086.03363,0.57825
3084.10486,0.57778
3082.17609,0.57731
3080.24732,0.57676
3078.31855,0.57619
3076.38978,0.57568
3074.46100,0.57525
3072.53223,0.57483
3070.60346,0.57439
3068.67469,0.57391
3066.74592,0.57338
3064.81715,0.57281
3062.88838,0.57228
3060.95961,0.57184
3059.03084,0.57144
3057.10207,0.57098
3055.17329,0.57045
3053.24452,0.56993
3051.31575,0.56944
3049.38698,0.56893
3047.45821,0.56843
3045.52944,0.56799
3043.60067,0.56758
3041.67190,0.56716
3039.74313,0.56671
3037.81435,0.56624
3035.88558,0.56578
3033.95681,0.56535
3032.02804,0.56493
3030.09927,0.56449
3028.17050,0.56407
3026.24173,0.56362
3024.31296,0.56314
3022.38419,0.56269
3020.45542,0.56230
3018.52664,0.56191
3016.59787,0.56149
3014.66910,0.56103
3012.74033,0.56056
3010.81156,0.56012
3008.88279,0.55977
3006.95402,0.55948
3005.02525,0.55915
3003.09648,0.55876
3001.16771,0.55834
2999.23893,0.55790
2997.31016,0.55748
2995.38139,0.55712
2993.45262,0.55679
2991.52385,0.55650
2989.59508,0.55622
2987.66631,0.55589
2985.73754,0.55554
2983.80877,0.55522
2981.88000,0.55494
2979.95122,0.55472
2978.02245,0.55452
2976.09368,0.55434
2974.16491,0.55416
2972.23614,0.55403
2970.30737,0.55399
2968.37860,0.55400
2966.44983,0.55398
2964.52106,0.55389
2962.59229,0.55371
2960.66351,0.55343
2958.73474,0.55306
2956.80597,0.55261
2954.87720,0.55213
2952.94843,0.55167
2951.01966,0.55123
2949.09089,0.55080
2947.16212,0.55040
2945.23335,0.55012
2943.30457,0.55004
2941.37580,0.55015
2939.44703,0.55038
2937.51826,0.55065
2935.58949,0.55094
2933.66072,0.55124
2931.73195,0.55153
2929.80318,0.55184
2927.87441,0.55212
2925.94564,0.55227
2924.01686,0.55219
2922.08809,0.55182
2920.15932,0.55109
2918.23055,0.54998
2916.30178,0.54857
2914.37301,0.54702
2912.44424,0.54553
2910.51547,0.54424
2908.58670,0.54317
2906.65793,0.54225
2904.72915,0.54144
2902.80038,0.54073
2900.87161,0.54009
2898.94284,0.53944
2897.01407,0.53878
2895.08530,0.53811
2893.15653,0.53748
2891.22776,0.53689
2889.29899,0.53637
2887.37022,0.53591
2885.44144,0.53548
2883.51267,0.53505
2881.58390,0.53461
2879.65513,0.53420
2877.72636,0.53383
2875.79759,0.53348
2873.86882,0.53314
2871.94005,0.53281
2870.01128,0.53246
2868.08251,0.53211
2866.15373,0.53182
2864.22496,0.53168
2862.29619,0.53167
2860.36742,0.53178
2858.43865,0.53192
2856.50988,0.53197
2854.58111,0.53180
2852.65234,0.53130
2850.72357,0.53047
2848.79480,0.52937
2846.86602,0.52815
2844.93725,0.52696
2843.00848,0.52589
2841.07971,0.52496
2839.15094,0.52418
2837.22217,0.52353
2835.29340,0.52293
2833.36463,0.52233
2831.43586,0.52173
2829.50708,0.52114
2827.57831,0.52057
2825.64954,0.52006
2823.72077,0.51961
2821.79200,0.51919
2819.86323,0.51876
2817.93446,0.51829
2816.00569,0.51781
2814.07692,0.51733
2812.14815,0.51688
2810.21937,0.51647
2808.29060,0.51609
2806.36183,0.51568
2804.43306,0.51522
2802.50429,0.51474
2800.57552,0.51427
2798.64675,0.51385
2796.71798,0.51346
2794.78921,0.51309
2792.86044,0.51267
2790.93166,0.51222
2789.00289,0.51177
2787.07412,0.51135
2785.14535,0.51096
2783.21658,0.51059
2781.28781,0.51022
2779.35904,0.50981
2777.43027,0.50936
2775.50150,0.50890
2773.57273,0.50848
2771.64395,0.50810
2769.71518,0.50773
2767.78641,0.50736
2765.85764,0.50694
2763.92887,0.50649
2762.00010,0.50606
2760.07133,0.50568
2758.14256,0.50531
2756.21379,0.50493
2754.28502,0.50454
2752.35624,0.50413
2750.42747,0.50370
2748.49870,0.50327
2746.56993,0.50288
2744.64116,0.50253
2742.71239,0.50217
2740.78362,0.50179
2738.85485,0.50136
2736.92608,0.50092
2734.99730,0.50051
2733.06853,0.50012
2731.13976,0.49976
2729.21099,0.49940
2727.28222,0.49900
2725.35345,0.49858
2723.42468,0.49813
2721.49591,0.49771
2719.56714,0.49732
2717.63837,0.49695
2715.70959,0.49658
2713.78082,0.49618
2711.85205,0.49574
2709.92328,0.49531
2707.99451,0.49489
2706.06574,0.49452
2704.13697,0.49417
2702.20820,0.49379
2700.27943,0.49338
2698.35066,0.49294
2696.42188,0.49252
2694.49311,0.49212
2692.56434,0.49176
2690.63557,0.49141
2688.70680,0.49104
2686.77803,0.49063
2684.84926,0.49020
2682.92049,0.48977
2680.99172,0.48937
2679.06295,0.48901
2677.13417,0.48866
2675.20540,0.48828
2673.27663,0.48788
2671.34786,0.48745
2669.41909,0.48704
2667.49032,0.48666
2665.56155,0.48630
2663.63278,0.48595
2661.70401,0.48556
2659.77524,0.48514
2657.84646,0.48471
2655.91769,0.48431
2653.98892,0.48393
2652.06015,0.48356
2650.13138,0.48319
2648.20261,0.48279
2646.27384,0.48237
2644.34507,0.48194
2642.41630,0.48153
2640.48752,0.48116
2638.55875,0.48081
2636.62998,0.48043
2634.70121,0.48002
2632.77244,0.47960
2630.84367,0.47919
2628.91490,0.47880
2626.98613,0.47842
2625.05736,0.47807
2623.12859,0.47770
2621.19981,0.47730
2619.27104,0.47688
2617.34227,0.47647
2615.41350,0.47609
2613.48473,0.47573
2611.55596,0.47537
2609.62719,0.47499
2607.69842,0.47459
2605.76965,0.47417
2603.84088,0.47377
2601.91210,0.47339
2599.98333,0.47302
2598.05456,0.47267
2596.12579,0.47229
2594.19702,0.47188
2592.26825,0.47146
2590.33948,0.47106
2588.41071,0.47070
2586.48194,0.47035
2584.55317,0.46999
2582.62439,0.46960
2580.69562,0.46919
2578.76685,0.46878
2576.83808,0.46839
2574.90931,0.46804
2572.98054,0.46768
2571.05177,0.46732
2569.12300,0.46693
2567.19423,0.46651
2565.26546,0.46610
2563.33668,0.46571
2561.40791,0.46536
2559.47914,0.46501
2557.55037,0.46464
2555.62160,0.46424
2553.69283,0.46382
2551.76406,0.46343
2549.83529,0.46307
2547.90652,0.46273
2545.97775,0.46239
2544.04897,0.46202
2542.12020,0.46161
2540.19143,0.46118
2538.26266,0.46078
2536.33389,0.46043
2534.40512,0.46010
2532.47635,0.45975
2530.54758,0.45938
2528.61881,0.45897
2526.69003,0.45857
2524.76126,0.45818
2522.83249,0.45783
2520.90372,0.45748
2518.97495,0.45712
2517.04618,0.45672
2515.11741,0.45631
2513.18864,0.45592
2511.25987,0.45555
2509.33110,0.45521
2507.40232,0.45487
2505.47355,0.45451
2503.54478,0.45412
2501.61601,0.45372
2499.68724,0.45333
2497.75847,0.45296
2495.82970,0.45262
2493.90093,0.45228
2491.97216,0.45192
2490.04339,0.45151
2488.11461,0.45111
2486.18584,0.45072
2484.25707,0.45036
2482.32830,0.45002
2480.39953,0.44967
2478.47076,0.44930
2476.54199,0.44890
2474.61322,0.44849
2472.68445,0.44811
2470.75568,0.44775
2468.82690,0.44742
2466.89813,0.44708
2464.96936,0.44671
2463.04059,0.44632
2461.11182,0.44592
2459.18305,0.44554
2457.25428,0.44519
2455.32551,0.44487
2453.39674,0.44452
2451.46797,0.44414
2449.53919,0.44374
2447.61042,0.44336
2445.68165,0.44300
2443.75288,0.44266
2441.82411,0.44231
2439.89534,0.44195
2437.96657,0.44156
2436.03780,0.44117
2434.10903,0.44079
2432.18025,0.44044
2430.25148,0.44012
2428.32271,0.43979
2426.39394,0.43944
2424.46517,0.43905
2422.53640,0.43865
2420.60763,0.43826
2418.67886,0.43791
2416.75009,0.43758
2414.82132,0.43724
2412.89254,0.43688
2410.96377,0.43649
2409.03500,0.43610
2407.10623,0.43574
2405.17746,0.43540
2403.24869,0.43507
2401.31992,0.43473
2399.39115,0.43438
2397.46238,0.43400
2395.53361,0.43362
2393.60483,0.43327
2391.67606,0.43296
2389.74729,0.43269
2387.81852,0.43249
2385.88975,0.43238
2383.96098,0.43239
2382.03221,0.43250
2380.10344,0.43265
2378.17467,0.43278
2376.24590,0.43289
2374.31712,0.43295
2372.38835,0.43292
2370.45958,0.43273
2368.53081,0.43240
2366.60204,0.43205
2364.67327,0.43170
2362.74450,0.43124
2360.81573,0.43049
2358.88696,0.42932
2356.95819,0.42790
2355.02941,0.42659
2353.10064,0.42558
2351.17187,0.42543
2349.24310,0.42649
2347.31433,0.42793
2345.38556,0.42832
2343.45679,0.42722
2341.52802,0.42602
2339.59925,0.42537
2337.67048,0.42501
2335.74170,0.42472
2333.81293,0.42439
2331.88416,0.42382
2329.95539,0.42305
2328.02662,0.42244
2326.09785,0.42213
2324.16908,0.42182
2322.24031,0.42123
2320.31154,0.42049
2318.38276,0.41990
2316.45399,0.41957
2314.52522,0.41934
2312.59645,0.41902
2310.66768,0.41859
2308.73891,0.41813
2306.81014,0.41767
2304.88137,0.41726
2302.95260,0.41694
2301.02383,0.41663
2299.09505,0.41630
2297.16628,0.41597
2295.23751,0.41561
2293.30874,0.41520
2291.37997,0.41478
2289.45120,0.41439
2287.52243,0.41404
2285.59366,0.41372
2283.66489,0.41345
2281.73612,0.41318
2279.80734,0.41285
2277.87857,0.41249
2275.94980,0.41213
2274.02103,0.41180
2272.09226,0.41149
2270.16349,0.41118
2268.23472,0.41084
2266.30595,0.41046
2264.37718,0.41009
2262.44841,0.40974
2260.51963,0.40942
2258.59086,0.40911
2256.66209,0.40878
2254.73332,0.40843
2252.80455,0.40806
2250.87578,0.40771
2248.94701,0.40738
2247.01824,0.40707
2245.08947,0.40677
2243.16070,0.40645
2241.23192,0.40610
2239.30315,0.40575
2237.37438,0.40541
2235.44561,0.40509
2233.51684,0.40480
2231.58807,0.40451
2229.65930,0.40419
2227.73053,0.40383
2225.80176,0.40347
2223.87298,0.40314
2221.94421,0.40285
2220.01544,0.40257
2218.08667,0.40229
2216.15790,0.40197
2214.22913,0.40162
2212.30036,0.40128
2210.37159,0.40097
2208.44282,0.40068
2206.51405,0.40040
2204.58527,0.40012
2202.65650,0.39980
2200.72773,0.39948
2198.79896,0.39916
2196.87019,0.39888
2194.94142,0.39861
2193.01265,0.39835
2191.08388,0.39806
2189.15511,0.39775
2187.22634,0.39743
2185.29756,0.39712
2183.36879,0.39684
2181.44002,0.39658
2179.51125,0.39633
2177.58248,0.39607
2175.65371,0.39577
2173.72494,0.39546
2171.79617,0.39519
2169.86740,0.39493
2167.93863,0.39468
2166.00985,0.39443
2164.08108,0.39416
2162.15231,0.39387
2160.22354,0.39359
2158.29477,0.39332
2156.36600,0.39308
2154.43723,0.39284
2152.50846,0.39260
2150.57969,0.39234
2148.65092,0.39206
2146.72214,0.39178
2144.79337,0.39151
2142.86460,0.39127
2140.93583,0.39103
2139.00706,0.39080
2137.07829,0.39053
2135.14952,0.39022
2133.22075,0.38992
2131.29198,0.38966
2129.36320,0.38942
2127.43443,0.38919
2125.50566,0.38894
2123.57689,0.38867
2121.64812,0.38838
2119.71935,0.38809
2117.79058,0.38784
2115.86181,0.38760
2113.93304,0.38736
2112.00427,0.38712
2110.07549,0.38685
2108.14672,0.38656
2106.21795,0.38629
2104.28918,0.38606
2102.36041,0.38585
2100.43164,0.38564
2098.50287,0.38540
2096.57410,0.38514
2094.64533,0.38488
2092.71656,0.38465
2090.78778,0.38444
2088.85901,0.38423
2086.93024,0.38402
2085.00147,0.38381
2083.07270,0.38356
2081.14393,0.38331
2079.21516,0.38309
2077.28639,0.38289
2075.35762,0.38269
2073.42885,0.38246
2071.50007,0.38221
2069.57130,0.38193
2067.64253,0.38168
2065.71376,0.38141
2063.78499,0.38114
2061.85622,0.38089
2059.92745,0.38064
2057.99868,0.38036
2056.06991,0.38006
2054.14114,0.37979
2052.21236,0.37955
2050.28359,0.37932
2048.35482,0.37908
2046.42605,0.37884
2044.49728,0.37861
2042.56851,0.37835
2040.63974,0.37807
2038.71097,0.37783
2036.78220,0.37764
2034.85343,0.37744
2032.92465,0.37722
2030.99588,0.37698
2029.06711,0.37673
2027.13834,0.37651
2025.20957,0.37631
2023.28080,0.37613
2021.35203,0.37594
2019.42326,0.37573
2017.49449,0.37542
2015.56571,0.37506
2013.63694,0.37479
2011.70817,0.37458
2009.77940,0.37435
2007.85063,0.37407
2005.92186,0.37376
2003.99309,0.37345
2002.06432,0.37315
2000.13555,0.37288
1998.20678,0.37262
1996.27800,0.37243
1994.34923,0.37226
1992.42046,0.37194
1990.49169,0.37151
1988.56292,0.37120
1986.63415,0.37097
1984.70538,0.37077
1982.77661,0.37056
1980.84784,0.37034
1978.91907,0.37009
1976.99029,0.36983
1975.06152,0.36958
1973.13275,0.36937
1971.20398,0.36922
1969.27521,0.36908
1967.34644,0.36879
1965.41767,0.36844
1963.48890,0.36820
1961.56013,0.36803
1959.63136,0.36783
1957.70258,0.36762
1955.77381,0.36740
1953.84504,0.36716
1951.91627,0.36693
1949.98750,0.36672
1948.05873,0.36657
1946.12996,0.36648
1944.20119,0.36633
1942.27242,0.36592
1940.34365,0.36549
1938.41487,0.36527
1936.48610,0.36507
1934.55733,0.36481
1932.62856,0.36454
1930.69979,0.36426
1928.77102,0.36397
1926.84225,0.36371
1924.91348,0.36345
1922.98471,0.36305
1921.05593,0.36273
1919.12716,0.36247
1917.19839,0.36203
1915.26962,0.36166
1913.34085,0.36153
1911.41208,0.36133
1909.48331,0.36098
1907.55454,0.36062
1905.62577,0.36038
1903.69700,0.36017
1901.76822,0.35991
1899.83945,0.35965
1897.91068,0.35941
1895.98191,0.35912
1894.05314,0.35881
1892.12437,0.35863
1890.19560,0.35834
1888.26683,0.35784
1886.33806,0.35751
1884.40929,0.35729
1882.48051,0.35705
1880.55174,0.35682
1878.62297,0.35660
1876.69420,0.35637
1874.76543,0.35618
1872.83666,0.35616
1870.90789,0.35615
1868.97912,0.35571
1867.05035,0.35509
1865.12158,0.35491
1863.19280,0.35496
1861.26403,0.35490
1859.33526,0.35473
1857.40649,0.35456
1855.47772,0.35446
1853.54895,0.35441
1851.62018,0.35439
1849.69141,0.35441
1847.76264,0.35450
1845.83387,0.35443
1843.90509,0.35385
1841.97632,0.35342
1840.04755,0.35357
1838.11878,0.35370
1836.19001,0.35359
1834.26124,0.35356
1832.33247,0.35367
1830.40370,0.35344
1828.47493,0.35300
1826.54615,0.35282
1824.61738,0.35259
1822.68861,0.35232
1820.75984,0.35224
1818.83107,0.35216
1816.90230,0.35198
1814.97353,0.35190
1813.04476,0.35189
1811.11599,0.35170
1809.18722,0.35138
1807.25844,0.35123
1805.32967,0.35129
1803.40090,0.35142
1801.47213,0.35136
1799.54336,0.35116
1797.61459,0.35119
1795.68582,0.35154
1793.75705,0.35174
1791.82828,0.35136
1789.89951,0.35112
1787.97073,0.35149
1786.04196,0.35188
1784.11319,0.35203
1782.18442,0.35212
1780.25565,0.35213
1778.32688,0.35219
1776.39811,0.35256
1774.46934,0.35291
1772.54057,0.35261
1770.61180,0.35195
1768.68302,0.35166
1766.75425,0.35160
1764.82548,0.35175
1762.89671,0.35175
1760.96794,0.35134
1759.03917,0.35108
1757.11040,0.35090
1755.18163,0.35074
1753.25286,0.35089
1751.32409,0.35086
1749.39531,0.35036
1747.46654,0.35006
1745.53777,0.35014
1743.60900,0.35028
1741.68023,0.35029
1739.75146,0.35011
1737.82269,0.35028
1735.89392,0.35075
1733.96515,0.35036
1732.03638,0.34964
1730.10760,0.34970
1728.17883,0.34995
1726.25006,0.35023
1724.32129,0.35053
1722.39252,0.35094
1720.46375,0.35162
1718.53498,0.35195
1716.60621,0.35132
1714.67744,0.35090
1712.74866,0.35118
1710.81989,0.35172
1708.89112,0.35229
1706.96235,0.35261
1705.03358,0.35271
1703.10481,0.35313
1701.17604,0.35344
1699.24727,0.35312
1697.31850,0.35305
1695.38973,0.35309
1693.46095,0.35339
1691.53218,0.35416
1689.60341,0.35490
1687.67464,0.35568
1685.74587,0.35642
1683.81710,0.35634
1681.88833,0.35646
1679.95956,0.35746
1678.03079,0.35865
1676.10202,0.35958
1674.17324,0.36035
1672.24447,0.36144
1670.31570,0.36257
1668.38693,0.36345
1666.45816,0.36468
1664.52939,0.36625
1662.60062,0.36779
1660.67185,0.36935
1658.74308,0.37116
1656.81431,0.37316
1654.88553,0.37509
1652.95676,0.37636
1651.02799,0.37764
1649.09922,0.37960
1647.17045,0.38145
1645.24168,0.38283
1643.31291,0.38434
1641.38414,0.38601
1639.45537,0.38759
1637.52660,0.38880
1635.59782,0.38920
1633.66905,0.38950
1631.74028,0.39034
1629.81151,0.39101
1627.88274,0.39108
1625.95397,0.39080
1624.02520,0.39010
1622.09643,0.38909
1620.16766,0.38863
1618.23888,0.38807
1616.31011,0.38608
1614.38134,0.38398
1612.45257,0.38270
1610.52380,0.38136
1608.59503,0.37969
1606.66626,0.37809
1604.73749,0.37667
1602.80872,0.37527
1600.87995,0.37385
1598.95117,0.37253
1597.02240,0.37129
1595.09363,0.37000
1593.16486,0.36876
1591.23609,0.36764
1589.30732,0.36657
1587.37855,0.36552
1585.44978,0.36450
1583.52101,0.36353
1581.59224,0.36271
1579.66346,0.36224
1577.73469,0.36165
1575.80592,0.36019
1573.87715,0.35915
1571.94838,0.35898
1570.01961,0.35839
1568.09084,0.35738
1566.16207,0.35690
1564.23330,0.35683
1562.30453,0.35716
1560.37575,0.35728
1558.44698,0.35538
1556.51821,0.35396
1554.58944,0.35395
1552.66067,0.35401
1550.73190,0.35393
1548.80313,0.35383
1546.87436,0.35392
1544.94559,0.35411
1543.01682,0.35413
1541.08804,0.35358
1539.15927,0.35243
1537.23050,0.35237
1535.30173,0.35292
1533.37296,0.35294
1531.44419,0.35273
1529.51542,0.35304
1527.58665,0.35340
1525.65788,0.35363
1523.72910,0.35393
1521.80033,0.35394
1519.87156,0.35373
1517.94279,0.35378
1516.01402,0.35386
1514.08525,0.35409
1512.15648,0.35465
1510.22771,0.35537
1508.29894,0.35572
1506.37017,0.35477
1504.44139,0.35431
1502.51262,0.35495
1500.58385,0.35572
1498.65508,0.35615
1496.72631,0.35613
1494.79754,0.35625
1492.86877,0.35684
1490.94000,0.35742
1489.01123,0.35756
1487.08246,0.35769
1485.15368,0.35821
1483.22491,0.35889
1481.29614,0.35953
1479.36737,0.36020
1477.43860,0.36100
1475.50983,0.36187
1473.58106,0.36260
1471.65229,0.36317
1469.72352,0.36395
1467.79475,0.36491
1465.86597,0.36561
1463.93720,0.36598
1462.00843,0.36663
1460.07966,0.36762
1458.15089,0.36824
1456.22212,0.36802
1454.29335,0.36819
1452.36458,0.36886
1450.43581,0.36953
1448.50704,0.37005
1446.57826,0.37047
1444.64949,0.37101
1442.72072,0.37163
1440.79195,0.37233
1438.86318,0.37307
1436.93441,0.37360
1435.00564,0.37401
1433.07687,0.37472
1431.14810,0.37551
1429.21933,0.37612
1427.29055,0.37673
1425.36178,0.37745
1423.43301,0.37821
1421.50424,0.37903
1419.57547,0.37972
1417.64670,0.38014
1415.71793,0.38067
1413.78916,0.38137
1411.86039,0.38205
1409.93161,0.38273
1408.00284,0.38351
1406.07407,0.38428
1404.14530,0.38494
1402.21653,0.38562
1400.28776,0.38633
1398.35899,0.38695
1396.43022,0.38752
1394.50145,0.38807
1392.57268,0.38868
1390.64390,0.38953
1388.71513,0.39054
1386.78636,0.39167
1384.85759,0.39275
1382.92882,0.39358
1381.00005,0.39417
1379.07128,0.39476
1377.14251,0.39544
1375.21374,0.39603
1373.28497,0.39649
1371.35619,0.39709
1369.42742,0.39786
1367.49865,0.39868
1365.56988,0.39953
1363.64111,0.40032
1361.71234,0.40093
1359.78357,0.40158
1357.85480,0.40238
1355.92603,0.40327
1353.99726,0.40415
1352.06848,0.40501
1350.13971,0.40585
1348.21094,0.40667
1346.28217,0.40755
1344.35340,0.40853
1342.42463,0.40959
1340.49586,0.41063
1338.56709,0.41158
1336.63832,0.41252
1334.70955,0.41353
1332.78077,0.41462
1330.85200,0.41578
1328.92323,0.41700
1326.99446,0.41826
1325.06569,0.41951
1323.13692,0.42072
1321.20815,0.42193
1319.27938,0.42318
1317.35061,0.42447
1315.42183,0.42579
1313.49306,0.42708
1311.56429,0.42833
1309.63552,0.42956
1307.70675,0.43083
1305.77798,0.43216
1303.84921,0.43355
1301.92044,0.43499
1299.99167,0.43645
1298.06290,0.43792
1296.13412,0.43939
1294.20535,0.44088
1292.27658,0.44247
1290.34781,0.44415
1288.41904,0.44587
1286.49027,0.44757
1284.56150,0.44923
1282.63273,0.45090
1280.70396,0.45261
1278.77519,0.45440
1276.84641,0.45628
1274.91764,0.45818
1272.98887,0.46007
1271.06010,0.46195
1269.13133,0.46385
1267.20256,0.46583
1265.27379,0.46791
1263.34502,0.47007
1261.41625,0.47228
1259.48748,0.47448
1257.55870,0.47667
1255.62993,0.47887
1253.70116,0.48117
1251.77239,0.48359
1249.84362,0.48611
1247.91485,0.48869
1245.98608,0.49128
1244.05731,0.49388
1242.12854,0.49653
1240.19977,0.49931
1238.27099,0.50227
1236.34222,0.50533
1234.41345,0.50842
1232.48468,0.51152
1230.55591,0.51467
1228.62714,0.51796
1226.69837,0.52143
1224.76960,0.52511
1222.84083,0.52896
1220.91206,0.53291
1218.98328,0.53693
1217.05451,0.54110
1215.12574,0.54550
1213.19697,0.55017
1211.26820,0.55509
1209.33943,0.56019
1207.41066,0.56537
1205.48189,0.57061
1203.55312,0.57593
1201.62434,0.58139
1199.69557,0.58705
1197.76680,0.59287
1195.83803,0.59873
1193.90926,0.60459
1191.98049,0.61046
1190.05172,0.61642
1188.12295,0.62260
1186.19418,0.62905
1184.26541,0.63564
1182.33663,0.64223
1180.40786,0.64872
1178.47909,0.65516
1176.55032,0.66163
1174.62155,0.66823
1172.69278,0.67493
1170.76401,0.68163
1168.83524,0.68815
1166.90647,0.69444
1164.97770,0.70057
1163.04892,0.70665
1161.12015,0.71282
1159.19138,0.71911
1157.26261,0.72549
1155.33384,0.73183
1153.40507,0.73811
1151.47630,0.74450
1149.54753,0.75119
1147.61876,0.75825
1145.68999,0.76550
1143.76121,0.77253
1141.83244,0.77895
1139.90367,0.78497
1137.97490,0.79148
1136.04613,0.79932
1134.11736,0.80881
1132.18859,0.81975
1130.25982,0.83166
1128.33105,0.84372
1126.40228,0.85497
1124.47350,0.86435
1122.54473,0.87088
1120.61596,0.87443
1118.68719,0.87600
1116.75842,0.87744
1114.82965,0.88040
1112.90088,0.88562
1110.97211,0.89309
1109.04334,0.90254
1107.11456,0.91394
1105.18579,0.92718
1103.25702,0.94173
1101.32825,0.95680
1099.39948,0.97186
1097.47071,0.98676
1095.54194,1.00132
1093.61317,1.01522
1091.68440,1.02781
1089.75563,1.03866
1087.82685,1.04783
1085.89808,1.05593
1083.96931,1.06375
1082.04054,1.07163
1080.11177,1.07934
1078.18300,1.08650
1076.25423,1.09339
1074.32546,1.10021
1072.39669,1.10684
1070.46792,1.11348
1068.53914,1.12028
1066.61037,1.12693
1064.68160,1.13247
1062.75283,1.13634
1060.82406,1.13851
1058.89529,1.13902
1056.96652,1.13787
1055.03775,1.13538
1053.10898,1.13207
1051.18021,1.12764
1049.25143,1.12149
1047.32266,1.11347
1045.39389,1.10456
1043.46512,1.09693
1041.53635,1.09245
1039.60758,1.09111
1037.67881,1.09163
1035.75004,1.09343
1033.82127,1.09666
1031.89250,1.10149
1029.96372,1.10776
1028.03495,1.11488
1026.10618,1.12243
1024.17741,1.13030
1022.24864,1.13899
1020.31987,1.14909
1018.39110,1.16045
1016.46233,1.17216
1014.53356,1.18337
1012.60478,1.19380
1010.67601,1.20310
1008.74724,1.21093
1006.81847,1.21704
1004.88970,1.22145
1002.96093,1.22382
1001.03216,1.22348
999.10339,1.22022
997.17462,1.21440
995.24585,1.20744
993.31707,1.20171
991.38830,1.19963
989.45953,1.20254
987.53076,1.21035
985.60199,1.22140
983.67322,1.23288
981.74445,1.24305
979.81568,1.25204
977.88691,1.26008
975.95814,1.26588
974.02936,1.26690
972.10059,1.26144
970.17182,1.25008
968.24305,1.23539
966.31428,1.22016
964.38551,1.20646
962.45674,1.19573
960.52797,1.18971
958.59920,1.19127
956.67043,1.20324
954.74165,1.22440
952.81288,1.24734
950.88411,1.26375
948.95534,1.27100
947.02657,1.27119
945.09780,1.26738
943.16903,1.26227
941.24026,1.25802
939.31149,1.25592
937.38272,1.25630
935.45394,1.25869
933.52517,1.26228
931.59640,1.26636
929.66763,1.27043
927.73886,1.27424
925.81009,1.27733
923.88132,1.27851
921.95255,1.27628
920.02378,1.26933
918.09501,1.25766
916.16623,1.24323
914.23746,1.22917
912.30869,1.21820
910.37992,1.21160
908.45115,1.20958
906.52238,1.21217
904.59361,1.21934
902.66484,1.23082
900.73607,1.24605
898.80729,1.26419
896.87852,1.28377
894.94975,1.30312
893.02098,1.32070
891.09221,1.33533
889.16344,1.34647
887.23467,1.35389
885.30590,1.35703
883.37713,1.35460
881.44836,1.34533
879.51958,1.32911
877.59081,1.30739
875.66204,1.28245
873.73327,1.25624
871.80450,1.23001
869.87573,1.20402
867.94696,1.17787
866.01819,1.15118
864.08942,1.12430
862.16065,1.09809
860.23187,1.07301
858.30310,1.04887
856.37433,1.02476
854.44556,0.99960
852.51679,0.97302
850.58802,0.94565
848.65925,0.91927
846.73048,0.89683
844.80171,0.88156
842.87294,0.87453
840.94416,0.87265
839.01539,0.86930
837.08662,0.85872
835.15785,0.84005
833.22908,0.81646
831.30031,0.79161
829.37154,0.76728
827.44277,0.74375
825.51400,0.72099
823.58523,0.69922
821.65645,0.67879
819.72768,0.65979
817.79891,0.64218
815.87014,0.62582
813.94137,0.61052
812.01260,0.59617
810.08383,0.58286
808.15506,0.57071
806.22629,0.55967
804.29751,0.54946
802.36874,0.53968
800.43997,0.53003
798.51120,0.52042
796.58243,0.51098
794.65366,0.50186
792.72489,0.49309
790.79612,0.48457
788.86735,0.47608
786.93858,0.46753
785.00980,0.45901
783.08103,0.45074
781.15226,0.44278
779.22349,0.43503
777.29472,0.42737
775.36595,0.41974
773.43718,0.41218
771.50841,0.40488
769.57964,0.39805
767.65087,0.39179
765.72209,0.38605
763.79332,0.38070
761.86455,0.37556
759.93578,0.37057
758.00701,0.36590
756.07824,0.36181
754.14947,0.35861
752.22070,0.35663
750.29193,0.35619
748.36316,0.35750
746.43438,0.36011
744.50561,0.36247
742.57684,0.36284
740.64807,0.36131
738.71930,0.36004
736.79053,0.36094
734.86176,0.36437
732.93299,0.36988
731.00422,0.37693
729.07545,0.38440
727.14667,0.38990
725.21790,0.39066
723.28913,0.38577
721.36036,0.37647
719.43159,0.36519
717.50282,0.35458
715.57405,0.34579
713.64528,0.33874
711.71651,0.33323
709.78773,0.32908
707.85896,0.32610
705.93019,0.32427
704.00142,0.32370
702.07265,0.32456
700.14388,0.32700
698.21511,0.33116
696.28634,0.33702
694.35757,0.34438
692.42880,0.35257
690.50002,0.36020
688.57125,0.36551
686.64248,0.36719
684.71371,0.36541
682.78494,0.36168
680.85617,0.35765
678.92740,0.35420
676.99863,0.35103
675.06986,0.34748
673.14109,0.34392
671.21231,0.34148
669.28354,0.34094
667.35477,0.34353
665.42600,0.34823
663.49723,0.35505
661.56846,0.36551
659.63969,0.37934
657.71092,0.39568
655.78215,0.41387
653.85338,0.43285
651.92460,0.45162
649.99583,0.46989
648.06706,0.48747
646.13829,0.50306
644.20952,0.51473
642.28075,0.52077
640.35198,0.52096
638.42321,0.51671
636.49444,0.51052
634.56567,0.50452
632.63689,0.50014
630.70812,0.49802
628.77935,0.49824
626.85058,0.50105
624.92181,0.50679
622.99304,0.51561
621.06427,0.52684
619.13550,0.53988
617.20673,0.55437
615.27796,0.56925
613.34918,0.58365
611.42041,0.59756
609.49164,0.61136
607.56287,0.62499
605.63410,0.63772
603.70533,0.64863
601.77656,0.65734
599.84779,0.66406
597.91902,0.66925
595.99024,0.67330
594.06147,0.67511
592.13270,0.67301
590.20393,0.66704
588.27516,0.65943
586.34639,0.65247
584.41762,0.64746
582.48885,0.64544
580.56008,0.64661
578.63131,0.65059
576.70253,0.65711
574.77376,0.66664
572.84499,0.67976
570.91622,0.69663
568.98745,0.71661
567.05868,0.73711
565.12991,0.75547
563.20114,0.77064
561.27237,0.78367
559.34360,0.79723
557.41482,0.81388
555.48605,0.83463
553.55728,0.85817
551.62851,0.88317
549.69974,0.90900
547.77097,0.93532
545.84220,0.96140
543.91343,0.98488
541.98466,1.00313
540.05589,1.01416
538.12711,1.01815
536.19834,1.01687
534.26957,1.01311
532.34080,1.01079
530.41203,1.01387
528.48326,1.02535
526.55449,1.04596
524.62572,1.07207
522.69695,1.09652
520.76818,1.11727
518.83940,1.13710
516.91063,1.15698
514.98186,1.17375
513.05309,1.18378
511.12432,1.18770
509.19555,1.18910
507.26678,1.19265
505.33801,1.20089
503.40924,1.21067
501.48046,1.21358
499.55169,1.20142
497.62292,1.17472
495.69415,1.13964
493.76538,1.10186
491.83661,1.06458
489.90784,1.02935
487.97907,0.99431
486.05030,0.95714
484.12153,0.92083
482.19275,0.89119
480.26398,0.87078
478.33521,0.85828
476.40644,0.85068
474.47767,0.84419
472.54890,0.83762
470.62013,0.83330
468.69136,0.83224
466.76259,0.83404
464.83382,0.83844
462.90504,0.84374
460.97627,0.84707
459.04750,0.84662
457.11873,0.84360
455.18996,0.84205
453.26119,0.84452
451.33242,0.85123
449.40365,0.85980
447.47488,0.86640
445.54611,0.86903
443.61733,0.86899
441.68856,0.87097
439.75979,0.87864
437.83102,0.89189
435.90225,0.90749
433.97348,0.91998
432.04471,0.92977
430.11594,0.94214
428.18717,0.95922
426.25840,0.98028
424.32962,1.00348
422.40085,1.02279
420.47208,1.03310
418.54331,1.03590
416.61454,1.03908
414.68577,1.05020
412.75700,1.07083
410.82823,1.09265
408.89946,1.09709
406.97069,1.07545
405.04191,1.03992
403.11314,1.00753
401.18437,0.98900
399.25560,0.98743
397.32683,0.99654
395.39806,0.99030
393.46929,0.95685
391.54052,0.91372
389.61175,0.87951
387.68297,0.86240
385.75420,0.85901
383.82543,0.85580
381.89666,0.83533
379.96789,0.80070
378.03912,0.76595
376.11035,0.74858
374.18158,0.77923
372.25281,0.84205
370.32404,0.88970
368.39526,0.87898
366.46649,0.80612
364.53772,0.73598
362.60895,0.72442
360.68018,0.80442
358.75141,1.02104
356.82264,1.48652
354.89387,1.34443
352.96510,0.70294
351.03633,0.41547
349.10755,0.45788
