# 28 JAN 2015 - B.L. de Vries
# Bremenv√∂rde, H3, Sample 1, Take 2
# m = 2.0 mgr, KBr = 442 mgr
# Signal = 5700
# Resolution / sample scan time / bg scan time / range = 4 / 64 / 64 / 4000-300
# Source: glow-bar, Machine: Equinox 55, DTGS
# k(cm-1), absorbance
3996.41355,0.87558
3994.48478,0.87526
3992.55601,0.87491
3990.62724,0.87458
3988.69847,0.87426
3986.76970,0.87386
3984.84093,0.87344
3982.91215,0.87310
3980.98338,0.87275
3979.05461,0.87230
3977.12584,0.87182
3975.19707,0.87144
3973.26830,0.87115
3971.33953,0.87078
3969.41076,0.87042
3967.48199,0.87008
3965.55322,0.86961
3963.62444,0.86913
3961.69567,0.86890
3959.76690,0.86867
3957.83813,0.86826
3955.90936,0.86782
3953.98059,0.86723
3952.05182,0.86650
3950.12305,0.86618
3948.19428,0.86630
3946.26550,0.86591
3944.33673,0.86519
3942.40796,0.86528
3940.47919,0.86541
3938.55042,0.86467
3936.62165,0.86352
3934.69288,0.86250
3932.76411,0.86249
3930.83534,0.86322
3928.90657,0.86292
3926.97779,0.86176
3925.04902,0.86136
3923.12025,0.86126
3921.19148,0.86033
3919.26271,0.85968
3917.33394,0.86041
3915.40517,0.86106
3913.47640,0.86033
3911.54763,0.85910
3909.61886,0.85780
3907.69008,0.85575
3905.76131,0.85428
3903.83254,0.85512
3901.90377,0.85696
3899.97500,0.85842
3898.04623,0.85889
3896.11746,0.85695
3894.18869,0.85391
3892.25992,0.85357
3890.33115,0.85485
3888.40237,0.85341
3886.47360,0.85226
3884.54483,0.85350
3882.61606,0.85309
3880.68729,0.85286
3878.75852,0.85352
3876.82975,0.85167
3874.90098,0.84958
3872.97221,0.84860
3871.04344,0.84882
3869.11466,0.85077
3867.18589,0.85051
3865.25712,0.84903
3863.32835,0.84971
3861.39958,0.85008
3859.47081,0.84780
3857.54204,0.84295
3855.61327,0.83932
3853.68450,0.84492
3851.75572,0.85307
3849.82695,0.85201
3847.89818,0.84731
3845.96941,0.84398
3844.04064,0.84261
3842.11187,0.84182
3840.18310,0.84107
3838.25433,0.84263
3836.32556,0.84503
3834.39679,0.84473
3832.46801,0.84358
3830.53924,0.84294
3828.61047,0.84176
3826.68170,0.84049
3824.75293,0.83837
3822.82416,0.83672
3820.89539,0.83906
3818.96662,0.84027
3817.03785,0.83944
3815.10908,0.84126
3813.18030,0.84138
3811.25153,0.83782
3809.32276,0.83467
3807.39399,0.83523
3805.46522,0.83617
3803.53645,0.83433
3801.60768,0.83529
3799.67891,0.83781
3797.75014,0.83696
3795.82137,0.83615
3793.89259,0.83583
3791.96382,0.83455
3790.03505,0.83343
3788.10628,0.83264
3786.17751,0.83218
3784.24874,0.83201
3782.31997,0.83118
3780.39120,0.83087
3778.46243,0.83199
3776.53366,0.83211
3774.60488,0.83034
3772.67611,0.82831
3770.74734,0.82810
3768.81857,0.82933
3766.88980,0.82964
3764.96103,0.82927
3763.03226,0.82800
3761.10349,0.82639
3759.17472,0.82680
3757.24594,0.82711
3755.31717,0.82443
3753.38840,0.82138
3751.45963,0.82297
3749.53086,0.82685
3747.60209,0.82519
3745.67332,0.82315
3743.74455,0.82731
3741.81578,0.82854
3739.88701,0.82360
3737.95823,0.81973
3736.02946,0.82064
3734.10069,0.82388
3732.17192,0.82568
3730.24315,0.82468
3728.31438,0.82222
3726.38561,0.82121
3724.45684,0.82186
3722.52807,0.82240
3720.59930,0.82272
3718.67052,0.82246
3716.74175,0.82070
3714.81298,0.81782
3712.88421,0.81698
3710.95544,0.82020
3709.02667,0.82283
3707.09790,0.82210
3705.16913,0.81981
3703.24036,0.81879
3701.31159,0.82018
3699.38281,0.82116
3697.45404,0.82057
3695.52527,0.81947
3693.59650,0.81805
3691.66773,0.81738
3689.73896,0.82021
3687.81019,0.82492
3685.88142,0.82594
3683.95265,0.82395
3682.02388,0.82224
3680.09510,0.82086
3678.16633,0.81925
3676.23756,0.82124
3674.30879,0.82543
3672.38002,0.82497
3670.45125,0.82498
3668.52248,0.82816
3666.59371,0.82853
3664.66494,0.82692
3662.73617,0.82641
3660.80739,0.82632
3658.87862,0.82598
3656.94985,0.82748
3655.02108,0.82958
3653.09231,0.82838
3651.16354,0.82763
3649.23477,0.83276
3647.30600,0.83897
3645.37723,0.84041
3643.44845,0.83959
3641.51968,0.83974
3639.59091,0.84109
3637.66214,0.84254
3635.73337,0.84399
3633.80460,0.84513
3631.87583,0.84524
3629.94706,0.84829
3628.01829,0.85650
3626.08952,0.86102
3624.16074,0.86063
3622.23197,0.86047
3620.30320,0.86334
3618.37443,0.86871
3616.44566,0.87243
3614.51689,0.87445
3612.58812,0.87716
3610.65935,0.88037
3608.73058,0.88458
3606.80181,0.88934
3604.87303,0.89235
3602.94426,0.89441
3601.01549,0.89759
3599.08672,0.90133
3597.15795,0.90473
3595.22918,0.90864
3593.30041,0.91265
3591.37164,0.91501
3589.44287,0.91740
3587.51410,0.92279
3585.58532,0.92854
3583.65655,0.93151
3581.72778,0.93356
3579.79901,0.93638
3577.87024,0.93965
3575.94147,0.94295
3574.01270,0.94612
3572.08393,0.94847
3570.15516,0.95015
3568.22639,0.95349
3566.29761,0.95896
3564.36884,0.96299
3562.44007,0.96500
3560.51130,0.96715
3558.58253,0.96976
3556.65376,0.97213
3554.72499,0.97440
3552.79622,0.97724
3550.86745,0.98012
3548.93867,0.98232
3547.00990,0.98490
3545.08113,0.98833
3543.15236,0.99135
3541.22359,0.99352
3539.29482,0.99552
3537.36605,0.99792
3535.43728,1.00061
3533.50851,1.00300
3531.57974,1.00508
3529.65096,1.00742
3527.72219,1.01013
3525.79342,1.01280
3523.86465,1.01540
3521.93588,1.01793
3520.00711,1.02017
3518.07834,1.02234
3516.14957,1.02462
3514.22080,1.02683
3512.29203,1.02897
3510.36325,1.03131
3508.43448,1.03378
3506.50571,1.03588
3504.57694,1.03796
3502.64817,1.04058
3500.71940,1.04303
3498.79063,1.04496
3496.86186,1.04694
3494.93309,1.04913
3493.00432,1.05119
3491.07554,1.05308
3489.14677,1.05503
3487.21800,1.05709
3485.28923,1.05903
3483.36046,1.06095
3481.43169,1.06313
3479.50292,1.06523
3477.57415,1.06699
3475.64538,1.06875
3473.71661,1.07062
3471.78783,1.07246
3469.85906,1.07429
3467.93029,1.07615
3466.00152,1.07786
3464.07275,1.07940
3462.14398,1.08096
3460.21521,1.08252
3458.28644,1.08393
3456.35767,1.08518
3454.42889,1.08633
3452.50012,1.08732
3450.57135,1.08810
3448.64258,1.08891
3446.71381,1.08990
3444.78504,1.09062
3442.85627,1.09097
3440.92750,1.09119
3438.99873,1.09124
3437.06996,1.09107
3435.14118,1.09071
3433.21241,1.09020
3431.28364,1.08955
3429.35487,1.08869
3427.42610,1.08762
3425.49733,1.08633
3423.56856,1.08486
3421.63979,1.08337
3419.71102,1.08181
3417.78225,1.07998
3415.85347,1.07789
3413.92470,1.07577
3411.99593,1.07360
3410.06716,1.07131
3408.13839,1.06885
3406.20962,1.06630
3404.28085,1.06371
3402.35208,1.06107
3400.42331,1.05837
3398.49454,1.05563
3396.56576,1.05286
3394.63699,1.05003
3392.70822,1.04718
3390.77945,1.04423
3388.85068,1.04104
3386.92191,1.03772
3384.99314,1.03444
3383.06437,1.03110
3381.13560,1.02752
3379.20683,1.02368
3377.27805,1.01971
3375.34928,1.01564
3373.42051,1.01140
3371.49174,1.00694
3369.56297,1.00239
3367.63420,0.99783
3365.70543,0.99327
3363.77666,0.98867
3361.84789,0.98400
3359.91912,0.97933
3357.99034,0.97471
3356.06157,0.97015
3354.13280,0.96567
3352.20403,0.96127
3350.27526,0.95693
3348.34649,0.95268
3346.41772,0.94851
3344.48895,0.94439
3342.56018,0.94034
3340.63140,0.93633
3338.70263,0.93239
3336.77386,0.92863
3334.84509,0.92502
3332.91632,0.92144
3330.98755,0.91787
3329.05878,0.91437
3327.13001,0.91097
3325.20124,0.90770
3323.27247,0.90454
3321.34369,0.90145
3319.41492,0.89840
3317.48615,0.89543
3315.55738,0.89253
3313.62861,0.88974
3311.69984,0.88704
3309.77107,0.88441
3307.84230,0.88185
3305.91353,0.87939
3303.98476,0.87705
3302.05598,0.87479
3300.12721,0.87257
3298.19844,0.87036
3296.26967,0.86819
3294.34090,0.86608
3292.41213,0.86409
3290.48336,0.86219
3288.55459,0.86036
3286.62582,0.85857
3284.69705,0.85682
3282.76827,0.85514
3280.83950,0.85349
3278.91073,0.85187
3276.98196,0.85029
3275.05319,0.84877
3273.12442,0.84727
3271.19565,0.84579
3269.26688,0.84435
3267.33811,0.84292
3265.40934,0.84147
3263.48056,0.84003
3261.55179,0.83858
3259.62302,0.83710
3257.69425,0.83559
3255.76548,0.83409
3253.83671,0.83260
3251.90794,0.83108
3249.97917,0.82943
3248.05040,0.82770
3246.12162,0.82600
3244.19285,0.82434
3242.26408,0.82263
3240.33531,0.82084
3238.40654,0.81903
3236.47777,0.81721
3234.54900,0.81537
3232.62023,0.81355
3230.69146,0.81175
3228.76269,0.80994
3226.83391,0.80810
3224.90514,0.80624
3222.97637,0.80440
3221.04760,0.80263
3219.11883,0.80089
3217.19006,0.79910
3215.26129,0.79728
3213.33252,0.79552
3211.40375,0.79379
3209.47498,0.79206
3207.54620,0.79034
3205.61743,0.78858
3203.68866,0.78676
3201.75989,0.78492
3199.83112,0.78310
3197.90235,0.78134
3195.97358,0.77962
3194.04481,0.77788
3192.11604,0.77612
3190.18727,0.77437
3188.25849,0.77265
3186.32972,0.77100
3184.40095,0.76942
3182.47218,0.76781
3180.54341,0.76619
3178.61464,0.76466
3176.68587,0.76320
3174.75710,0.76171
3172.82833,0.76018
3170.89956,0.75870
3168.97078,0.75728
3167.04201,0.75588
3165.11324,0.75448
3163.18447,0.75308
3161.25570,0.75172
3159.32693,0.75039
3157.39816,0.74909
3155.46939,0.74779
3153.54062,0.74648
3151.61185,0.74521
3149.68307,0.74401
3147.75430,0.74283
3145.82553,0.74165
3143.89676,0.74045
3141.96799,0.73925
3140.03922,0.73807
3138.11045,0.73694
3136.18168,0.73584
3134.25291,0.73476
3132.32413,0.73371
3130.39536,0.73264
3128.46659,0.73157
3126.53782,0.73053
3124.60905,0.72949
3122.68028,0.72842
3120.75151,0.72734
3118.82274,0.72628
3116.89397,0.72528
3114.96520,0.72436
3113.03642,0.72347
3111.10765,0.72250
3109.17888,0.72149
3107.25011,0.72054
3105.32134,0.71964
3103.39257,0.71870
3101.46380,0.71776
3099.53503,0.71684
3097.60626,0.71595
3095.67749,0.71508
3093.74871,0.71422
3091.81994,0.71328
3089.89117,0.71233
3087.96240,0.71143
3086.03363,0.71054
3084.10486,0.70964
3082.17609,0.70874
3080.24732,0.70788
3078.31855,0.70709
3076.38978,0.70635
3074.46100,0.70559
3072.53223,0.70478
3070.60346,0.70393
3068.67469,0.70307
3066.74592,0.70229
3064.81715,0.70159
3062.88838,0.70087
3060.95961,0.70008
3059.03084,0.69928
3057.10207,0.69853
3055.17329,0.69782
3053.24452,0.69709
3051.31575,0.69636
3049.38698,0.69570
3047.45821,0.69507
3045.52944,0.69438
3043.60067,0.69368
3041.67190,0.69305
3039.74313,0.69251
3037.81435,0.69197
3035.88558,0.69139
3033.95681,0.69087
3032.02804,0.69049
3030.09927,0.69017
3028.17050,0.68983
3026.24173,0.68949
3024.31296,0.68922
3022.38419,0.68902
3020.45542,0.68886
3018.52664,0.68877
3016.59787,0.68880
3014.66910,0.68890
3012.74033,0.68908
3010.81156,0.68934
3008.88279,0.68959
3006.95402,0.68978
3005.02525,0.68994
3003.09648,0.69008
3001.16771,0.69018
2999.23893,0.69023
2997.31016,0.69026
2995.38139,0.69033
2993.45262,0.69041
2991.52385,0.69052
2989.59508,0.69066
2987.66631,0.69081
2985.73754,0.69094
2983.80877,0.69104
2981.88000,0.69115
2979.95122,0.69132
2978.02245,0.69152
2976.09368,0.69178
2974.16491,0.69215
2972.23614,0.69266
2970.30737,0.69333
2968.37860,0.69416
2966.44983,0.69508
2964.52106,0.69602
2962.59229,0.69686
2960.66351,0.69749
2958.73474,0.69781
2956.80597,0.69779
2954.87720,0.69745
2952.94843,0.69687
2951.01966,0.69619
2949.09089,0.69552
2947.16212,0.69505
2945.23335,0.69497
2943.30457,0.69543
2941.37580,0.69645
2939.44703,0.69796
2937.51826,0.69987
2935.58949,0.70207
2933.66072,0.70437
2931.73195,0.70658
2929.80318,0.70851
2927.87441,0.70992
2925.94564,0.71051
2924.01686,0.71005
2922.08809,0.70852
2920.15932,0.70594
2918.23055,0.70233
2916.30178,0.69790
2914.37301,0.69319
2912.44424,0.68875
2910.51547,0.68490
2908.58670,0.68162
2906.65793,0.67876
2904.72915,0.67619
2902.80038,0.67385
2900.87161,0.67169
2898.94284,0.66967
2897.01407,0.66775
2895.08530,0.66595
2893.15653,0.66429
2891.22776,0.66275
2889.29899,0.66136
2887.37022,0.66014
2885.44144,0.65912
2883.51267,0.65832
2881.58390,0.65772
2879.65513,0.65731
2877.72636,0.65701
2875.79759,0.65678
2873.86882,0.65658
2871.94005,0.65634
2870.01128,0.65599
2868.08251,0.65557
2866.15373,0.65522
2864.22496,0.65512
2862.29619,0.65547
2860.36742,0.65633
2858.43865,0.65749
2856.50988,0.65852
2854.58111,0.65890
2852.65234,0.65824
2850.72357,0.65637
2848.79480,0.65342
2846.86602,0.64994
2844.93725,0.64659
2843.00848,0.64373
2841.07971,0.64134
2839.15094,0.63931
2837.22217,0.63749
2835.29340,0.63579
2833.36463,0.63419
2831.43586,0.63271
2829.50708,0.63138
2827.57831,0.63020
2825.64954,0.62916
2823.72077,0.62824
2821.79200,0.62740
2819.86323,0.62661
2817.93446,0.62587
2816.00569,0.62514
2814.07692,0.62441
2812.14815,0.62370
2810.21937,0.62299
2808.29060,0.62231
2806.36183,0.62163
2804.43306,0.62097
2802.50429,0.62030
2800.57552,0.61963
2798.64675,0.61898
2796.71798,0.61836
2794.78921,0.61776
2792.86044,0.61713
2790.93166,0.61651
2789.00289,0.61590
2787.07412,0.61531
2785.14535,0.61473
2783.21658,0.61416
2781.28781,0.61357
2779.35904,0.61299
2777.43027,0.61240
2775.50150,0.61183
2773.57273,0.61127
2771.64395,0.61072
2769.71518,0.61017
2767.78641,0.60962
2765.85764,0.60907
2763.92887,0.60853
2762.00010,0.60799
2760.07133,0.60745
2758.14256,0.60692
2756.21379,0.60640
2754.28502,0.60587
2752.35624,0.60534
2750.42747,0.60481
2748.49870,0.60428
2746.56993,0.60377
2744.64116,0.60325
2742.71239,0.60274
2740.78362,0.60223
2738.85485,0.60173
2736.92608,0.60124
2734.99730,0.60074
2733.06853,0.60022
2731.13976,0.59968
2729.21099,0.59914
2727.28222,0.59861
2725.35345,0.59809
2723.42468,0.59756
2721.49591,0.59703
2719.56714,0.59649
2717.63837,0.59592
2715.70959,0.59535
2713.78082,0.59479
2711.85205,0.59425
2709.92328,0.59372
2707.99451,0.59318
2706.06574,0.59265
2704.13697,0.59212
2702.20820,0.59160
2700.27943,0.59106
2698.35066,0.59053
2696.42188,0.59001
2694.49311,0.58950
2692.56434,0.58900
2690.63557,0.58852
2688.70680,0.58802
2686.77803,0.58752
2684.84926,0.58701
2682.92049,0.58650
2680.99172,0.58598
2679.06295,0.58547
2677.13417,0.58496
2675.20540,0.58446
2673.27663,0.58396
2671.34786,0.58348
2669.41909,0.58299
2667.49032,0.58252
2665.56155,0.58204
2663.63278,0.58155
2661.70401,0.58106
2659.77524,0.58058
2657.84646,0.58008
2655.91769,0.57955
2653.98892,0.57903
2652.06015,0.57850
2650.13138,0.57799
2648.20261,0.57748
2646.27384,0.57695
2644.34507,0.57641
2642.41630,0.57589
2640.48752,0.57539
2638.55875,0.57490
2636.62998,0.57438
2634.70121,0.57387
2632.77244,0.57337
2630.84367,0.57287
2628.91490,0.57235
2626.98613,0.57184
2625.05736,0.57134
2623.12859,0.57086
2621.19981,0.57038
2619.27104,0.56991
2617.34227,0.56942
2615.41350,0.56892
2613.48473,0.56842
2611.55596,0.56793
2609.62719,0.56743
2607.69842,0.56694
2605.76965,0.56645
2603.84088,0.56597
2601.91210,0.56548
2599.98333,0.56497
2598.05456,0.56448
2596.12579,0.56399
2594.19702,0.56352
2592.26825,0.56305
2590.33948,0.56257
2588.41071,0.56208
2586.48194,0.56160
2584.55317,0.56112
2582.62439,0.56064
2580.69562,0.56015
2578.76685,0.55966
2576.83808,0.55917
2574.90931,0.55870
2572.98054,0.55823
2571.05177,0.55774
2569.12300,0.55725
2567.19423,0.55677
2565.26546,0.55629
2563.33668,0.55581
2561.40791,0.55534
2559.47914,0.55486
2557.55037,0.55438
2555.62160,0.55390
2553.69283,0.55341
2551.76406,0.55293
2549.83529,0.55245
2547.90652,0.55197
2545.97775,0.55149
2544.04897,0.55102
2542.12020,0.55056
2540.19143,0.55009
2538.26266,0.54960
2536.33389,0.54911
2534.40512,0.54863
2532.47635,0.54816
2530.54758,0.54770
2528.61881,0.54723
2526.69003,0.54675
2524.76126,0.54627
2522.83249,0.54581
2520.90372,0.54534
2518.97495,0.54485
2517.04618,0.54437
2515.11741,0.54389
2513.18864,0.54340
2511.25987,0.54293
2509.33110,0.54246
2507.40232,0.54200
2505.47355,0.54154
2503.54478,0.54107
2501.61601,0.54059
2499.68724,0.54011
2497.75847,0.53963
2495.82970,0.53916
2493.90093,0.53869
2491.97216,0.53822
2490.04339,0.53775
2488.11461,0.53729
2486.18584,0.53683
2484.25707,0.53637
2482.32830,0.53590
2480.39953,0.53543
2478.47076,0.53495
2476.54199,0.53448
2474.61322,0.53401
2472.68445,0.53354
2470.75568,0.53308
2468.82690,0.53263
2466.89813,0.53216
2464.96936,0.53169
2463.04059,0.53123
2461.11182,0.53077
2459.18305,0.53031
2457.25428,0.52985
2455.32551,0.52939
2453.39674,0.52893
2451.46797,0.52847
2449.53919,0.52802
2447.61042,0.52756
2445.68165,0.52710
2443.75288,0.52664
2441.82411,0.52620
2439.89534,0.52576
2437.96657,0.52531
2436.03780,0.52486
2434.10903,0.52441
2432.18025,0.52396
2430.25148,0.52351
2428.32271,0.52305
2426.39394,0.52261
2424.46517,0.52215
2422.53640,0.52169
2420.60763,0.52123
2418.67886,0.52079
2416.75009,0.52036
2414.82132,0.51992
2412.89254,0.51946
2410.96377,0.51901
2409.03500,0.51855
2407.10623,0.51810
2405.17746,0.51764
2403.24869,0.51719
2401.31992,0.51674
2399.39115,0.51630
2397.46238,0.51586
2395.53361,0.51543
2393.60483,0.51499
2391.67606,0.51453
2389.74729,0.51398
2387.81852,0.51331
2385.88975,0.51247
2383.96098,0.51146
2382.03221,0.51034
2380.10344,0.50922
2378.17467,0.50816
2376.24590,0.50717
2374.31712,0.50619
2372.38835,0.50525
2370.45958,0.50440
2368.53081,0.50374
2366.60204,0.50326
2364.67327,0.50303
2362.74450,0.50301
2360.81573,0.50322
2358.88696,0.50381
2356.95819,0.50479
2355.02941,0.50588
2353.10064,0.50676
2351.17187,0.50622
2349.24310,0.50367
2347.31433,0.50052
2345.38556,0.49894
2343.45679,0.49953
2341.52802,0.50030
2339.59925,0.50046
2337.67048,0.50025
2335.74170,0.49982
2333.81293,0.49925
2331.88416,0.49892
2329.95539,0.49895
2328.02662,0.49888
2326.09785,0.49849
2324.16908,0.49814
2322.24031,0.49809
2320.31154,0.49813
2318.38276,0.49790
2316.45399,0.49734
2314.52522,0.49673
2312.59645,0.49634
2310.66768,0.49611
2308.73891,0.49584
2306.81014,0.49549
2304.88137,0.49505
2302.95260,0.49455
2301.02383,0.49409
2299.09505,0.49368
2297.16628,0.49326
2295.23751,0.49286
2293.30874,0.49248
2291.37997,0.49208
2289.45120,0.49167
2287.52243,0.49127
2285.59366,0.49085
2283.66489,0.49035
2281.73612,0.48984
2279.80734,0.48937
2277.87857,0.48894
2275.94980,0.48852
2274.02103,0.48811
2272.09226,0.48770
2270.16349,0.48730
2268.23472,0.48690
2266.30595,0.48649
2264.37718,0.48608
2262.44841,0.48568
2260.51963,0.48527
2258.59086,0.48488
2256.66209,0.48448
2254.73332,0.48408
2252.80455,0.48368
2250.87578,0.48327
2248.94701,0.48286
2247.01824,0.48245
2245.08947,0.48204
2243.16070,0.48163
2241.23192,0.48123
2239.30315,0.48085
2237.37438,0.48045
2235.44561,0.48004
2233.51684,0.47962
2231.58807,0.47921
2229.65930,0.47881
2227.73053,0.47841
2225.80176,0.47801
2223.87298,0.47762
2221.94421,0.47723
2220.01544,0.47684
2218.08667,0.47644
2216.15790,0.47604
2214.22913,0.47564
2212.30036,0.47525
2210.37159,0.47487
2208.44282,0.47449
2206.51405,0.47411
2204.58527,0.47373
2202.65650,0.47335
2200.72773,0.47297
2198.79896,0.47259
2196.87019,0.47221
2194.94142,0.47183
2193.01265,0.47146
2191.08388,0.47110
2189.15511,0.47074
2187.22634,0.47037
2185.29756,0.47000
2183.36879,0.46964
2181.44002,0.46928
2179.51125,0.46892
2177.58248,0.46857
2175.65371,0.46821
2173.72494,0.46784
2171.79617,0.46749
2169.86740,0.46714
2167.93863,0.46679
2166.00985,0.46643
2164.08108,0.46607
2162.15231,0.46572
2160.22354,0.46538
2158.29477,0.46503
2156.36600,0.46468
2154.43723,0.46434
2152.50846,0.46399
2150.57969,0.46364
2148.65092,0.46329
2146.72214,0.46294
2144.79337,0.46260
2142.86460,0.46225
2140.93583,0.46190
2139.00706,0.46155
2137.07829,0.46121
2135.14952,0.46086
2133.22075,0.46052
2131.29198,0.46018
2129.36320,0.45983
2127.43443,0.45949
2125.50566,0.45914
2123.57689,0.45879
2121.64812,0.45845
2119.71935,0.45811
2117.79058,0.45776
2115.86181,0.45742
2113.93304,0.45709
2112.00427,0.45676
2110.07549,0.45642
2108.14672,0.45608
2106.21795,0.45574
2104.28918,0.45541
2102.36041,0.45509
2100.43164,0.45476
2098.50287,0.45443
2096.57410,0.45411
2094.64533,0.45379
2092.71656,0.45346
2090.78778,0.45314
2088.85901,0.45283
2086.93024,0.45253
2085.00147,0.45222
2083.07270,0.45191
2081.14393,0.45160
2079.21516,0.45129
2077.28639,0.45097
2075.35762,0.45063
2073.42885,0.45027
2071.50007,0.44991
2069.57130,0.44954
2067.64253,0.44917
2065.71376,0.44881
2063.78499,0.44846
2061.85622,0.44809
2059.92745,0.44770
2057.99868,0.44733
2056.06991,0.44698
2054.14114,0.44662
2052.21236,0.44626
2050.28359,0.44590
2048.35482,0.44556
2046.42605,0.44521
2044.49728,0.44487
2042.56851,0.44454
2040.63974,0.44423
2038.71097,0.44391
2036.78220,0.44358
2034.85343,0.44324
2032.92465,0.44292
2030.99588,0.44260
2029.06711,0.44228
2027.13834,0.44195
2025.20957,0.44161
2023.28080,0.44127
2021.35203,0.44089
2019.42326,0.44050
2017.49449,0.44016
2015.56571,0.43983
2013.63694,0.43944
2011.70817,0.43901
2009.77940,0.43857
2007.85063,0.43814
2005.92186,0.43770
2003.99309,0.43725
2002.06432,0.43679
2000.13555,0.43633
1998.20678,0.43588
1996.27800,0.43540
1994.34923,0.43491
1992.42046,0.43451
1990.49169,0.43416
1988.56292,0.43373
1986.63415,0.43326
1984.70538,0.43279
1982.77661,0.43235
1980.84784,0.43192
1978.91907,0.43149
1976.99029,0.43105
1975.06152,0.43062
1973.13275,0.43019
1971.20398,0.42973
1969.27521,0.42928
1967.34644,0.42890
1965.41767,0.42854
1963.48890,0.42810
1961.56013,0.42764
1959.63136,0.42723
1957.70258,0.42683
1955.77381,0.42643
1953.84504,0.42603
1951.91627,0.42562
1949.98750,0.42520
1948.05873,0.42475
1946.12996,0.42429
1944.20119,0.42388
1942.27242,0.42363
1940.34365,0.42333
1938.41487,0.42288
1936.48610,0.42241
1934.55733,0.42201
1932.62856,0.42162
1930.69979,0.42121
1928.77102,0.42079
1926.84225,0.42033
1924.91348,0.41988
1922.98471,0.41952
1921.05593,0.41911
1919.12716,0.41872
1917.19839,0.41852
1915.26962,0.41822
1913.34085,0.41771
1911.41208,0.41725
1909.48331,0.41692
1907.55454,0.41661
1905.62577,0.41622
1903.69700,0.41580
1901.76822,0.41540
1899.83945,0.41499
1897.91068,0.41457
1895.98191,0.41420
1894.05314,0.41383
1892.12437,0.41337
1890.19560,0.41299
1888.26683,0.41272
1886.33806,0.41234
1884.40929,0.41189
1882.48051,0.41149
1880.55174,0.41111
1878.62297,0.41074
1876.69420,0.41039
1874.76543,0.41000
1872.83666,0.40949
1870.90789,0.40903
1868.97912,0.40894
1867.05035,0.40897
1865.12158,0.40868
1863.19280,0.40824
1861.26403,0.40789
1859.33526,0.40763
1857.40649,0.40740
1855.47772,0.40715
1853.54895,0.40689
1851.62018,0.40662
1849.69141,0.40631
1847.76264,0.40591
1845.83387,0.40569
1843.90509,0.40594
1841.97632,0.40606
1840.04755,0.40567
1838.11878,0.40529
1836.19001,0.40510
1834.26124,0.40481
1832.33247,0.40443
1830.40370,0.40432
1828.47493,0.40434
1826.54615,0.40414
1824.61738,0.40397
1822.68861,0.40380
1820.75984,0.40347
1818.83107,0.40317
1816.90230,0.40298
1814.97353,0.40276
1813.04476,0.40253
1811.11599,0.40246
1809.18722,0.40249
1807.25844,0.40241
1805.32967,0.40223
1803.40090,0.40213
1801.47213,0.40228
1799.54336,0.40264
1797.61459,0.40284
1795.68582,0.40283
1793.75705,0.40314
1791.82828,0.40418
1789.89951,0.40516
1787.97073,0.40567
1786.04196,0.40634
1784.11319,0.40740
1782.18442,0.40856
1780.25565,0.40978
1778.32688,0.41091
1776.39811,0.41164
1774.46934,0.41227
1772.54057,0.41343
1770.61180,0.41459
1768.68302,0.41513
1766.75425,0.41530
1764.82548,0.41519
1762.89671,0.41514
1760.96794,0.41535
1759.03917,0.41529
1757.11040,0.41507
1755.18163,0.41478
1753.25286,0.41425
1751.32409,0.41399
1749.39531,0.41411
1747.46654,0.41400
1745.53777,0.41361
1743.60900,0.41316
1741.68023,0.41281
1739.75146,0.41257
1737.82269,0.41193
1735.89392,0.41107
1733.96515,0.41111
1732.03638,0.41144
1730.10760,0.41117
1728.17883,0.41097
1726.25006,0.41104
1724.32129,0.41133
1722.39252,0.41162
1720.46375,0.41173
1718.53498,0.41237
1716.60621,0.41384
1714.67744,0.41481
1712.74866,0.41496
1710.81989,0.41484
1708.89112,0.41465
1706.96235,0.41462
1705.03358,0.41459
1703.10481,0.41412
1701.17604,0.41392
1699.24727,0.41436
1697.31850,0.41443
1695.38973,0.41447
1693.46095,0.41442
1691.53218,0.41401
1689.60341,0.41381
1687.67464,0.41371
1685.74587,0.41411
1683.81710,0.41600
1681.88833,0.41769
1679.95956,0.41836
1678.03079,0.41905
1676.10202,0.42065
1674.17324,0.42293
1672.24447,0.42488
1670.31570,0.42722
1668.38693,0.43037
1666.45816,0.43285
1664.52939,0.43503
1662.60062,0.43819
1660.67185,0.44167
1658.74308,0.44441
1656.81431,0.44640
1654.88553,0.44911
1652.95676,0.45514
1651.02799,0.46048
1649.09922,0.46312
1647.17045,0.46691
1645.24168,0.47193
1643.31291,0.47555
1641.38414,0.47818
1639.45537,0.48052
1637.52660,0.48306
1635.59782,0.48690
1633.66905,0.49029
1631.74028,0.49114
1629.81151,0.49031
1627.88274,0.48876
1625.95397,0.48701
1624.02520,0.48536
1622.09643,0.48377
1620.16766,0.48184
1618.23888,0.47947
1616.31011,0.47660
1614.38134,0.47316
1612.45257,0.46941
1610.52380,0.46569
1608.59503,0.46217
1606.66626,0.45878
1604.73749,0.45546
1602.80872,0.45218
1600.87995,0.44895
1598.95117,0.44577
1597.02240,0.44263
1595.09363,0.43955
1593.16486,0.43653
1591.23609,0.43356
1589.30732,0.43067
1587.37855,0.42787
1585.44978,0.42518
1583.52101,0.42262
1581.59224,0.42016
1579.66346,0.41775
1577.73469,0.41557
1575.80592,0.41379
1573.87715,0.41200
1571.94838,0.41002
1570.01961,0.40829
1568.09084,0.40683
1566.16207,0.40529
1564.23330,0.40360
1562.30453,0.40178
1560.37575,0.40027
1558.44698,0.39967
1556.51821,0.39883
1554.58944,0.39734
1552.66067,0.39587
1550.73190,0.39452
1548.80313,0.39320
1546.87436,0.39185
1544.94559,0.39049
1543.01682,0.38927
1541.08804,0.38851
1539.15927,0.38817
1537.23050,0.38726
1535.30173,0.38601
1533.37296,0.38517
1531.44419,0.38452
1529.51542,0.38365
1527.58665,0.38289
1525.65788,0.38231
1523.72910,0.38175
1521.80033,0.38149
1519.87156,0.38142
1517.94279,0.38113
1516.01402,0.38081
1514.08525,0.38046
1512.15648,0.37995
1510.22771,0.37935
1508.29894,0.37910
1506.37017,0.37980
1504.44139,0.38022
1502.51262,0.37976
1500.58385,0.37933
1498.65508,0.37941
1496.72631,0.37996
1494.79754,0.38038
1492.86877,0.38038
1490.94000,0.38057
1489.01123,0.38133
1487.08246,0.38221
1485.15368,0.38291
1483.22491,0.38365
1481.29614,0.38462
1479.36737,0.38574
1477.43860,0.38699
1475.50983,0.38869
1473.58106,0.39134
1471.65229,0.39479
1469.72352,0.39755
1467.79475,0.39937
1465.86597,0.40108
1463.93720,0.40269
1462.00843,0.40346
1460.07966,0.40358
1458.15089,0.40403
1456.22212,0.40492
1454.29335,0.40501
1452.36458,0.40444
1450.43581,0.40390
1448.50704,0.40360
1446.57826,0.40338
1444.64949,0.40303
1442.72072,0.40256
1440.79195,0.40203
1438.86318,0.40159
1436.93441,0.40161
1435.00564,0.40187
1433.07687,0.40184
1431.14810,0.40187
1429.21933,0.40223
1427.29055,0.40267
1425.36178,0.40315
1423.43301,0.40370
1421.50424,0.40422
1419.57547,0.40502
1417.64670,0.40601
1415.71793,0.40659
1413.78916,0.40695
1411.86039,0.40740
1409.93161,0.40797
1408.00284,0.40858
1406.07407,0.40926
1404.14530,0.40995
1402.21653,0.41044
1400.28776,0.41088
1398.35899,0.41153
1396.43022,0.41235
1394.50145,0.41344
1392.57268,0.41477
1390.64390,0.41631
1388.71513,0.41865
1386.78636,0.42213
1384.85759,0.42576
1382.92882,0.42863
1381.00005,0.43068
1379.07128,0.43175
1377.14251,0.43155
1375.21374,0.43016
1373.28497,0.42826
1371.35619,0.42670
1369.42742,0.42580
1367.49865,0.42533
1365.56988,0.42479
1363.64111,0.42403
1361.71234,0.42319
1359.78357,0.42236
1357.85480,0.42158
1355.92603,0.42091
1353.99726,0.42037
1352.06848,0.41989
1350.13971,0.41948
1348.21094,0.41911
1346.28217,0.41878
1344.35340,0.41847
1342.42463,0.41819
1340.49586,0.41801
1338.56709,0.41800
1336.63832,0.41812
1334.70955,0.41832
1332.78077,0.41864
1330.85200,0.41910
1328.92323,0.41969
1326.99446,0.42038
1325.06569,0.42112
1323.13692,0.42188
1321.20815,0.42267
1319.27938,0.42353
1317.35061,0.42443
1315.42183,0.42534
1313.49306,0.42628
1311.56429,0.42726
1309.63552,0.42824
1307.70675,0.42923
1305.77798,0.43024
1303.84921,0.43125
1301.92044,0.43225
1299.99167,0.43321
1298.06290,0.43415
1296.13412,0.43508
1294.20535,0.43603
1292.27658,0.43702
1290.34781,0.43805
1288.41904,0.43913
1286.49027,0.44027
1284.56150,0.44148
1282.63273,0.44276
1280.70396,0.44407
1278.77519,0.44542
1276.84641,0.44681
1274.91764,0.44826
1272.98887,0.44977
1271.06010,0.45134
1269.13133,0.45304
1267.20256,0.45485
1265.27379,0.45675
1263.34502,0.45870
1261.41625,0.46069
1259.48748,0.46273
1257.55870,0.46485
1255.62993,0.46708
1253.70116,0.46945
1251.77239,0.47198
1249.84362,0.47464
1247.91485,0.47743
1245.98608,0.48031
1244.05731,0.48323
1242.12854,0.48620
1240.19977,0.48922
1238.27099,0.49229
1236.34222,0.49540
1234.41345,0.49855
1232.48468,0.50176
1230.55591,0.50506
1228.62714,0.50842
1226.69837,0.51187
1224.76960,0.51543
1222.84083,0.51912
1220.91206,0.52295
1218.98328,0.52701
1217.05451,0.53136
1215.12574,0.53603
1213.19697,0.54104
1211.26820,0.54635
1209.33943,0.55184
1207.41066,0.55737
1205.48189,0.56282
1203.55312,0.56817
1201.62434,0.57351
1199.69557,0.57892
1197.76680,0.58445
1195.83803,0.59008
1193.90926,0.59580
1191.98049,0.60166
1190.05172,0.60766
1188.12295,0.61378
1186.19418,0.61997
1184.26541,0.62619
1182.33663,0.63243
1180.40786,0.63868
1178.47909,0.64489
1176.55032,0.65104
1174.62155,0.65716
1172.69278,0.66319
1170.76401,0.66910
1168.83524,0.67487
1166.90647,0.68050
1164.97770,0.68596
1163.04892,0.69122
1161.12015,0.69632
1159.19138,0.70131
1157.26261,0.70624
1155.33384,0.71118
1153.40507,0.71619
1151.47630,0.72130
1149.54753,0.72652
1147.61876,0.73176
1145.68999,0.73688
1143.76121,0.74179
1141.83244,0.74654
1139.90367,0.75133
1137.97490,0.75646
1136.04613,0.76221
1134.11736,0.76876
1132.18859,0.77613
1130.25982,0.78409
1128.33105,0.79218
1126.40228,0.80004
1124.47350,0.80746
1122.54473,0.81404
1120.61596,0.81936
1118.68719,0.82343
1116.75842,0.82711
1114.82965,0.83149
1112.90088,0.83710
1110.97211,0.84387
1109.04334,0.85164
1107.11456,0.86045
1105.18579,0.87046
1103.25702,0.88169
1101.32825,0.89375
1099.39948,0.90603
1097.47071,0.91805
1095.54194,0.92947
1093.61317,0.94002
1091.68440,0.94950
1089.75563,0.95788
1087.82685,0.96532
1085.89808,0.97228
1083.96931,0.97927
1082.04054,0.98621
1080.11177,0.99282
1078.18300,0.99931
1076.25423,1.00630
1074.32546,1.01385
1072.39669,1.02155
1070.46792,1.02908
1068.53914,1.03634
1066.61037,1.04325
1064.68160,1.04965
1062.75283,1.05554
1060.82406,1.06082
1058.89529,1.06510
1056.96652,1.06803
1055.03775,1.06987
1053.10898,1.07147
1051.18021,1.07305
1049.25143,1.07427
1047.32266,1.07467
1045.39389,1.07433
1043.46512,1.07455
1041.53635,1.07693
1039.60758,1.08169
1037.67881,1.08777
1035.75004,1.09452
1033.82127,1.10206
1031.89250,1.11078
1029.96372,1.12089
1028.03495,1.13222
1026.10618,1.14474
1024.17741,1.15852
1022.24864,1.17380
1020.31987,1.19051
1018.39110,1.20764
1016.46233,1.22387
1014.53356,1.23900
1012.60478,1.25369
1010.67601,1.26807
1008.74724,1.28180
1006.81847,1.29458
1004.88970,1.30627
1002.96093,1.31652
1001.03216,1.32479
999.10339,1.33108
997.17462,1.33581
995.24585,1.33963
993.31707,1.34300
991.38830,1.34643
989.45953,1.35072
987.53076,1.35611
985.60199,1.36161
983.67322,1.36567
981.74445,1.36766
979.81568,1.36787
977.88691,1.36613
975.95814,1.36083
974.02936,1.34993
972.10059,1.33262
970.17182,1.30950
968.24305,1.28219
966.31428,1.25275
964.38551,1.22342
962.45674,1.19682
960.52797,1.17661
958.59920,1.16794
956.67043,1.17555
954.74165,1.19865
952.81288,1.22728
950.88411,1.24781
948.95534,1.25395
947.02657,1.24899
945.09780,1.23945
943.16903,1.23022
941.24026,1.22388
939.31149,1.22136
937.38272,1.22254
935.45394,1.22701
933.52517,1.23446
931.59640,1.24455
929.66763,1.25662
927.73886,1.26981
925.81009,1.28332
923.88132,1.29626
921.95255,1.30758
920.02378,1.31654
918.09501,1.32312
916.16623,1.32791
914.23746,1.33211
912.30869,1.33716
910.37992,1.34417
908.45115,1.35374
906.52238,1.36603
904.59361,1.38096
902.66484,1.39861
900.73607,1.41879
898.80729,1.44090
896.87852,1.46429
894.94975,1.48860
893.02098,1.51333
891.09221,1.53714
889.16344,1.55765
887.23467,1.57185
885.30590,1.57687
883.37713,1.57042
881.44836,1.55210
879.51958,1.52338
877.59081,1.48620
875.66204,1.44311
873.73327,1.39727
871.80450,1.35167
869.87573,1.30792
867.94696,1.26645
866.01819,1.22709
864.08942,1.18936
862.16065,1.15326
860.23187,1.11901
858.30310,1.08636
856.37433,1.05451
854.44556,1.02284
852.51679,0.99106
850.58802,0.95959
848.65925,0.93038
846.73048,0.90724
844.80171,0.89471
842.87294,0.89489
840.94416,0.90374
839.01539,0.91096
837.08662,0.90619
835.15785,0.88684
833.22908,0.85787
831.30031,0.82568
829.37154,0.79417
827.44277,0.76485
825.51400,0.73793
823.58523,0.71319
821.65645,0.69036
819.72768,0.66926
817.79891,0.64980
815.87014,0.63188
813.94137,0.61545
812.01260,0.60055
810.08383,0.58709
808.15506,0.57488
806.22629,0.56370
804.29751,0.55337
802.36874,0.54372
800.43997,0.53468
798.51120,0.52620
796.58243,0.51810
794.65366,0.51022
792.72489,0.50246
790.79612,0.49481
788.86735,0.48724
786.93858,0.47978
785.00980,0.47245
783.08103,0.46525
781.15226,0.45819
779.22349,0.45124
777.29472,0.44441
775.36595,0.43774
773.43718,0.43137
771.50841,0.42536
769.57964,0.41968
767.65087,0.41431
765.72209,0.40929
763.79332,0.40460
761.86455,0.40012
759.93578,0.39577
758.00701,0.39156
756.07824,0.38753
754.14947,0.38382
752.22070,0.38057
750.29193,0.37796
748.36316,0.37614
746.43438,0.37518
744.50561,0.37491
742.57684,0.37514
740.64807,0.37594
738.71930,0.37737
736.79053,0.37894
734.86176,0.37966
732.93299,0.37913
731.00422,0.37797
729.07545,0.37715
727.14667,0.37673
725.21790,0.37580
723.28913,0.37333
721.36036,0.36903
719.43159,0.36352
717.50282,0.35794
715.57405,0.35291
713.64528,0.34852
711.71651,0.34479
709.78773,0.34164
707.85896,0.33896
705.93019,0.33667
704.00142,0.33474
702.07265,0.33329
700.14388,0.33245
698.21511,0.33233
696.28634,0.33302
694.35757,0.33456
692.42880,0.33689
690.50002,0.33982
688.57125,0.34302
686.64248,0.34630
684.71371,0.34973
682.78494,0.35336
680.85617,0.35691
678.92740,0.35965
676.99863,0.36090
675.06986,0.36081
673.14109,0.36021
671.21231,0.35980
669.28354,0.36082
667.35477,0.36489
665.42600,0.36941
663.49723,0.37418
661.56846,0.38084
659.63969,0.38950
657.71092,0.40000
655.78215,0.41233
653.85338,0.42619
651.92460,0.44101
649.99583,0.45614
648.06706,0.47060
646.13829,0.48289
644.20952,0.49205
642.28075,0.49793
640.35198,0.50117
638.42321,0.50293
636.49444,0.50456
634.56567,0.50703
632.63689,0.51096
630.70812,0.51672
628.77935,0.52459
626.85058,0.53496
624.92181,0.54799
622.99304,0.56372
621.06427,0.58166
619.13550,0.60146
617.20673,0.62292
615.27796,0.64459
613.34918,0.66520
611.42041,0.68428
609.49164,0.70163
607.56287,0.71707
605.63410,0.73066
603.70533,0.74197
601.77656,0.75009
599.84779,0.75460
597.91902,0.75529
595.99024,0.75212
594.06147,0.74429
592.13270,0.73135
590.20393,0.71421
588.27516,0.69511
586.34639,0.67645
584.41762,0.65984
582.48885,0.64649
580.56008,0.63689
578.63131,0.63132
576.70253,0.62971
574.77376,0.63178
572.84499,0.63727
570.91622,0.64578
568.98745,0.65686
567.05868,0.66971
565.12991,0.68373
563.20114,0.69871
561.27237,0.71500
559.34360,0.73362
557.41482,0.75548
555.48605,0.78134
553.55728,0.81142
551.62851,0.84568
549.69974,0.88305
547.77097,0.92096
545.84220,0.95615
543.91343,0.98597
541.98466,1.01000
540.05589,1.02881
538.12711,1.04351
536.19834,1.05538
534.26957,1.06632
532.34080,1.07825
530.41203,1.09228
528.48326,1.10950
526.55449,1.12975
524.62572,1.15114
522.69695,1.17031
520.76818,1.18585
518.83940,1.19826
516.91063,1.20797
514.98186,1.21543
513.05309,1.22043
511.12432,1.22340
509.19555,1.22498
507.26678,1.22660
505.33801,1.22951
503.40924,1.23272
501.48046,1.23343
499.55169,1.22613
497.62292,1.20661
495.69415,1.17578
493.76538,1.13757
491.83661,1.09487
489.90784,1.05063
487.97907,1.00870
486.05030,0.97197
484.12153,0.94226
482.19275,0.92049
480.26398,0.90668
478.33521,0.89944
476.40644,0.89632
474.47767,0.89454
472.54890,0.89216
470.62013,0.88885
468.69136,0.88440
466.76259,0.87876
464.83382,0.87243
462.90504,0.86615
460.97627,0.86116
459.04750,0.85767
457.11873,0.85415
455.18996,0.84976
453.26119,0.84574
451.33242,0.84374
449.40365,0.84467
447.47488,0.84896
445.54611,0.85736
443.61733,0.87085
441.68856,0.88971
439.75979,0.91235
437.83102,0.93767
435.90225,0.96575
433.97348,0.99537
432.04471,1.02621
430.11594,1.05888
428.18717,1.09161
426.25840,1.12313
424.32962,1.15449
422.40085,1.18487
420.47208,1.21358
418.54331,1.24221
416.61454,1.26644
414.68577,1.28346
412.75700,1.29317
410.82823,1.29262
408.89946,1.27999
406.97069,1.25588
405.04191,1.22420
403.11314,1.18863
401.18437,1.15064
399.25560,1.10828
397.32683,1.06642
395.39806,1.03575
393.46929,1.01166
391.54052,0.98427
389.61175,0.95337
387.68297,0.92462
385.75420,0.89898
383.82543,0.87417
381.89666,0.85115
379.96789,0.83502
378.03912,0.83069
376.11035,0.83862
374.18158,0.85252
372.25281,0.86320
370.32404,0.87013
368.39526,0.87157
366.46649,0.86760
364.53772,0.86950
362.60895,0.88146
360.68018,0.89683
358.75141,0.91300
356.82264,0.93274
354.89387,0.94025
352.96510,0.93062
351.03633,0.94129
349.10755,0.96693
