# 4 FEB 2015 - B.L. de Vries
# Ochansk, H4, Sample 1, Take 1
# m = 2,8 mgr, KBr = 440 mgr
# Signal = 5200
# Resolution / sample scan time / bg scan time / range = 4 / 64 / 64 / 4000-300
# Source: glow-bar, Machine: Equinox 55, DTGS
# k(cm-1), absorbance
3996.41355,0.83424
3994.48478,0.83397
3992.55601,0.83367
3990.62724,0.83338
3988.69847,0.83308
3986.76970,0.83270
3984.84093,0.83232
3982.91215,0.83200
3980.98338,0.83169
3979.05461,0.83128
3977.12584,0.83083
3975.19707,0.83048
3973.26830,0.83022
3971.33953,0.82996
3969.41076,0.82969
3967.48199,0.82933
3965.55322,0.82885
3963.62444,0.82845
3961.69567,0.82826
3959.76690,0.82803
3957.83813,0.82765
3955.90936,0.82723
3953.98059,0.82675
3952.05182,0.82626
3950.12305,0.82606
3948.19428,0.82607
3946.26550,0.82567
3944.33673,0.82515
3942.40796,0.82522
3940.47919,0.82515
3938.55042,0.82448
3936.62165,0.82365
3934.69288,0.82302
3932.76411,0.82311
3930.83534,0.82351
3928.90657,0.82303
3926.97779,0.82207
3925.04902,0.82177
3923.12025,0.82162
3921.19148,0.82088
3919.26271,0.82048
3917.33394,0.82094
3915.40517,0.82110
3913.47640,0.82027
3911.54763,0.81928
3909.61886,0.81838
3907.69008,0.81720
3905.76131,0.81671
3903.83254,0.81775
3901.90377,0.81903
3899.97500,0.81966
3898.04623,0.81934
3896.11746,0.81748
3894.18869,0.81543
3892.25992,0.81551
3890.33115,0.81628
3888.40237,0.81511
3886.47360,0.81453
3884.54483,0.81543
3882.61606,0.81502
3880.68729,0.81486
3878.75852,0.81493
3876.82975,0.81327
3874.90098,0.81195
3872.97221,0.81154
3871.04344,0.81193
3869.11466,0.81314
3867.18589,0.81261
3865.25712,0.81160
3863.32835,0.81208
3861.39958,0.81196
3859.47081,0.81006
3857.54204,0.80691
3855.61327,0.80526
3853.68450,0.80991
3851.75572,0.81481
3849.82695,0.81291
3847.89818,0.80913
3845.96941,0.80677
3844.04064,0.80606
3842.11187,0.80583
3840.18310,0.80567
3838.25433,0.80690
3836.32556,0.80816
3834.39679,0.80748
3832.46801,0.80643
3830.53924,0.80576
3828.61047,0.80485
3826.68170,0.80400
3824.75293,0.80264
3822.82416,0.80195
3820.89539,0.80388
3818.96662,0.80433
3817.03785,0.80340
3815.10908,0.80422
3813.18030,0.80358
3811.25153,0.80081
3809.32276,0.79890
3807.39399,0.79968
3805.46522,0.80036
3803.53645,0.79927
3801.60768,0.80026
3799.67891,0.80165
3797.75014,0.80057
3795.82137,0.79968
3793.89259,0.79898
3791.96382,0.79774
3790.03505,0.79685
3788.10628,0.79629
3786.17751,0.79604
3784.24874,0.79595
3782.31997,0.79535
3780.39120,0.79526
3778.46243,0.79594
3776.53366,0.79559
3774.60488,0.79413
3772.67611,0.79295
3770.74734,0.79319
3768.81857,0.79411
3766.88980,0.79415
3764.96103,0.79367
3763.03226,0.79256
3761.10349,0.79153
3759.17472,0.79201
3757.24594,0.79212
3755.31717,0.79028
3753.38840,0.78874
3751.45963,0.79053
3749.53086,0.79309
3747.60209,0.79160
3745.67332,0.79048
3743.74455,0.79324
3741.81578,0.79326
3739.88701,0.78964
3737.95823,0.78753
3736.02946,0.78884
3734.10069,0.79108
3732.17192,0.79157
3730.24315,0.79011
3728.31438,0.78818
3726.38561,0.78757
3724.45684,0.78797
3722.52807,0.78806
3720.59930,0.78784
3718.67052,0.78715
3716.74175,0.78561
3714.81298,0.78378
3712.88421,0.78386
3710.95544,0.78647
3709.02667,0.78778
3707.09790,0.78651
3705.16913,0.78457
3703.24036,0.78395
3701.31159,0.78491
3699.38281,0.78523
3697.45404,0.78450
3695.52527,0.78363
3693.59650,0.78282
3691.66773,0.78286
3689.73896,0.78519
3687.81019,0.78785
3685.88142,0.78752
3683.95265,0.78559
3682.02388,0.78437
3680.09510,0.78364
3678.16633,0.78302
3676.23756,0.78501
3674.30879,0.78764
3672.38002,0.78660
3670.45125,0.78628
3668.52248,0.78777
3666.59371,0.78701
3664.66494,0.78531
3662.73617,0.78469
3660.80739,0.78445
3658.87862,0.78418
3656.94985,0.78525
3655.02108,0.78642
3653.09231,0.78543
3651.16354,0.78543
3649.23477,0.78938
3647.30600,0.79274
3645.37723,0.79227
3643.44845,0.79069
3641.51968,0.79025
3639.59091,0.79079
3637.66214,0.79146
3635.73337,0.79219
3633.80460,0.79272
3631.87583,0.79274
3629.94706,0.79500
3628.01829,0.80000
3626.08952,0.80157
3624.16074,0.80015
3622.23197,0.79953
3620.30320,0.80125
3618.37443,0.80436
3616.44566,0.80592
3614.51689,0.80645
3612.58812,0.80758
3610.65935,0.80905
3608.73058,0.81121
3606.80181,0.81349
3604.87303,0.81442
3602.94426,0.81499
3601.01549,0.81650
3599.08672,0.81829
3597.15795,0.81982
3595.22918,0.82168
3593.30041,0.82343
3591.37164,0.82414
3589.44287,0.82527
3587.51410,0.82846
3585.58532,0.83131
3583.65655,0.83208
3581.72778,0.83250
3579.79901,0.83359
3577.87024,0.83498
3575.94147,0.83638
3574.01270,0.83770
3572.08393,0.83859
3570.15516,0.83936
3568.22639,0.84154
3566.29761,0.84480
3564.36884,0.84651
3562.44007,0.84687
3560.51130,0.84757
3558.58253,0.84868
3556.65376,0.84970
3554.72499,0.85082
3552.79622,0.85237
3550.86745,0.85381
3548.93867,0.85480
3547.00990,0.85620
3545.08113,0.85808
3543.15236,0.85947
3541.22359,0.86030
3539.29482,0.86120
3537.36605,0.86254
3535.43728,0.86406
3533.50851,0.86534
3531.57974,0.86652
3529.65096,0.86797
3527.72219,0.86961
3525.79342,0.87109
3523.86465,0.87249
3521.93588,0.87384
3520.00711,0.87503
3518.07834,0.87619
3516.14957,0.87745
3514.22080,0.87871
3512.29203,0.88001
3510.36325,0.88150
3508.43448,0.88298
3506.50571,0.88411
3504.57694,0.88537
3502.64817,0.88703
3500.71940,0.88841
3498.79063,0.88939
3496.86186,0.89047
3494.93309,0.89169
3493.00432,0.89281
3491.07554,0.89385
3489.14677,0.89500
3487.21800,0.89619
3485.28923,0.89727
3483.36046,0.89836
3481.43169,0.89964
3479.50292,0.90081
3477.57415,0.90177
3475.64538,0.90280
3473.71661,0.90395
3471.78783,0.90509
3469.85906,0.90618
3467.93029,0.90721
3466.00152,0.90813
3464.07275,0.90898
3462.14398,0.90988
3460.21521,0.91084
3458.28644,0.91174
3456.35767,0.91256
3454.42889,0.91334
3452.50012,0.91407
3450.57135,0.91471
3448.64258,0.91543
3446.71381,0.91623
3444.78504,0.91680
3442.85627,0.91709
3440.92750,0.91733
3438.99873,0.91752
3437.06996,0.91765
3435.14118,0.91767
3433.21241,0.91759
3431.28364,0.91749
3429.35487,0.91734
3427.42610,0.91707
3425.49733,0.91663
3423.56856,0.91610
3421.63979,0.91566
3419.71102,0.91524
3417.78225,0.91462
3415.85347,0.91381
3413.92470,0.91297
3411.99593,0.91214
3410.06716,0.91126
3408.13839,0.91033
3406.20962,0.90937
3404.28085,0.90842
3402.35208,0.90747
3400.42331,0.90649
3398.49454,0.90550
3396.56576,0.90451
3394.63699,0.90348
3392.70822,0.90241
3390.77945,0.90126
3388.85068,0.89994
3386.92191,0.89854
3384.99314,0.89709
3383.06437,0.89551
3381.13560,0.89372
3379.20683,0.89177
3377.27805,0.88974
3375.34928,0.88762
3373.42051,0.88540
3371.49174,0.88307
3369.56297,0.88072
3367.63420,0.87836
3365.70543,0.87594
3363.77666,0.87349
3361.84789,0.87105
3359.91912,0.86861
3357.99034,0.86620
3356.06157,0.86385
3354.13280,0.86157
3352.20403,0.85935
3350.27526,0.85719
3348.34649,0.85507
3346.41772,0.85298
3344.48895,0.85094
3342.56018,0.84896
3340.63140,0.84700
3338.70263,0.84504
3336.77386,0.84309
3334.84509,0.84115
3332.91632,0.83925
3330.98755,0.83737
3329.05878,0.83553
3327.13001,0.83378
3325.20124,0.83212
3323.27247,0.83047
3321.34369,0.82880
3319.41492,0.82714
3317.48615,0.82555
3315.55738,0.82402
3313.62861,0.82257
3311.69984,0.82120
3309.77107,0.81990
3307.84230,0.81857
3305.91353,0.81717
3303.98476,0.81576
3302.05598,0.81438
3300.12721,0.81300
3298.19844,0.81163
3296.26967,0.81028
3294.34090,0.80895
3292.41213,0.80768
3290.48336,0.80644
3288.55459,0.80517
3286.62582,0.80389
3284.69705,0.80264
3282.76827,0.80143
3280.83950,0.80026
3278.91073,0.79909
3276.98196,0.79794
3275.05319,0.79679
3273.12442,0.79564
3271.19565,0.79449
3269.26688,0.79337
3267.33811,0.79229
3265.40934,0.79122
3263.48056,0.79016
3261.55179,0.78910
3259.62302,0.78803
3257.69425,0.78694
3255.76548,0.78581
3253.83671,0.78465
3251.90794,0.78343
3249.97917,0.78217
3248.05040,0.78089
3246.12162,0.77963
3244.19285,0.77838
3242.26408,0.77709
3240.33531,0.77576
3238.40654,0.77446
3236.47777,0.77320
3234.54900,0.77190
3232.62023,0.77059
3230.69146,0.76929
3228.76269,0.76800
3226.83391,0.76669
3224.90514,0.76536
3222.97637,0.76403
3221.04760,0.76273
3219.11883,0.76142
3217.19006,0.76010
3215.26129,0.75880
3213.33252,0.75755
3211.40375,0.75629
3209.47498,0.75503
3207.54620,0.75378
3205.61743,0.75253
3203.68866,0.75127
3201.75989,0.74998
3199.83112,0.74869
3197.90235,0.74744
3195.97358,0.74619
3194.04481,0.74490
3192.11604,0.74361
3190.18727,0.74236
3188.25849,0.74113
3186.32972,0.73991
3184.40095,0.73873
3182.47218,0.73757
3180.54341,0.73642
3178.61464,0.73530
3176.68587,0.73418
3174.75710,0.73303
3172.82833,0.73188
3170.89956,0.73079
3168.97078,0.72972
3167.04201,0.72864
3165.11324,0.72755
3163.18447,0.72649
3161.25570,0.72546
3159.32693,0.72442
3157.39816,0.72340
3155.46939,0.72238
3153.54062,0.72137
3151.61185,0.72040
3149.68307,0.71944
3147.75430,0.71849
3145.82553,0.71753
3143.89676,0.71657
3141.96799,0.71562
3140.03922,0.71468
3138.11045,0.71374
3136.18168,0.71281
3134.25291,0.71193
3132.32413,0.71108
3130.39536,0.71018
3128.46659,0.70927
3126.53782,0.70840
3124.60905,0.70756
3122.68028,0.70673
3120.75151,0.70590
3118.82274,0.70506
3116.89397,0.70423
3114.96520,0.70341
3113.03642,0.70257
3111.10765,0.70172
3109.17888,0.70091
3107.25011,0.70012
3105.32134,0.69933
3103.39257,0.69854
3101.46380,0.69778
3099.53503,0.69703
3097.60626,0.69625
3095.67749,0.69552
3093.74871,0.69478
3091.81994,0.69400
3089.89117,0.69320
3087.96240,0.69244
3086.03363,0.69170
3084.10486,0.69099
3082.17609,0.69029
3080.24732,0.68959
3078.31855,0.68886
3076.38978,0.68814
3074.46100,0.68744
3072.53223,0.68676
3070.60346,0.68610
3068.67469,0.68546
3066.74592,0.68484
3064.81715,0.68423
3062.88838,0.68359
3060.95961,0.68292
3059.03084,0.68227
3057.10207,0.68167
3055.17329,0.68110
3053.24452,0.68050
3051.31575,0.67992
3049.38698,0.67940
3047.45821,0.67893
3045.52944,0.67847
3043.60067,0.67805
3041.67190,0.67766
3039.74313,0.67732
3037.81435,0.67702
3035.88558,0.67676
3033.95681,0.67658
3032.02804,0.67650
3030.09927,0.67648
3028.17050,0.67649
3026.24173,0.67657
3024.31296,0.67676
3022.38419,0.67706
3020.45542,0.67745
3018.52664,0.67798
3016.59787,0.67865
3014.66910,0.67941
3012.74033,0.68024
3010.81156,0.68112
3008.88279,0.68200
3006.95402,0.68284
3005.02525,0.68367
3003.09648,0.68448
3001.16771,0.68521
2999.23893,0.68589
2997.31016,0.68654
2995.38139,0.68717
2993.45262,0.68779
2991.52385,0.68836
2989.59508,0.68889
2987.66631,0.68936
2985.73754,0.68978
2983.80877,0.69014
2981.88000,0.69043
2979.95122,0.69071
2978.02245,0.69102
2976.09368,0.69140
2974.16491,0.69193
2972.23614,0.69273
2970.30737,0.69388
2968.37860,0.69539
2966.44983,0.69715
2964.52106,0.69898
2962.59229,0.70069
2960.66351,0.70202
2958.73474,0.70286
2956.80597,0.70324
2954.87720,0.70330
2952.94843,0.70310
2951.01966,0.70258
2949.09089,0.70169
2947.16212,0.70060
2945.23335,0.69964
2943.30457,0.69919
2941.37580,0.69948
2939.44703,0.70050
2937.51826,0.70209
2935.58949,0.70408
2933.66072,0.70629
2931.73195,0.70850
2929.80318,0.71042
2927.87441,0.71171
2925.94564,0.71209
2924.01686,0.71144
2922.08809,0.70983
2920.15932,0.70741
2918.23055,0.70425
2916.30178,0.70042
2914.37301,0.69614
2912.44424,0.69187
2910.51547,0.68797
2908.58670,0.68451
2906.65793,0.68132
2904.72915,0.67823
2902.80038,0.67522
2900.87161,0.67235
2898.94284,0.66968
2897.01407,0.66726
2895.08530,0.66509
2893.15653,0.66312
2891.22776,0.66132
2889.29899,0.65971
2887.37022,0.65834
2885.44144,0.65723
2883.51267,0.65643
2881.58390,0.65592
2879.65513,0.65559
2877.72636,0.65534
2875.79759,0.65513
2873.86882,0.65490
2871.94005,0.65457
2870.01128,0.65405
2868.08251,0.65325
2866.15373,0.65222
2864.22496,0.65116
2862.29619,0.65040
2860.36742,0.65022
2858.43865,0.65055
2856.50988,0.65102
2854.58111,0.65121
2852.65234,0.65080
2850.72357,0.64955
2848.79480,0.64745
2846.86602,0.64483
2844.93725,0.64223
2843.00848,0.63998
2841.07971,0.63799
2839.15094,0.63605
2837.22217,0.63399
2835.29340,0.63177
2833.36463,0.62948
2831.43586,0.62732
2829.50708,0.62542
2827.57831,0.62384
2825.64954,0.62253
2823.72077,0.62142
2821.79200,0.62045
2819.86323,0.61956
2817.93446,0.61873
2816.00569,0.61793
2814.07692,0.61715
2812.14815,0.61640
2810.21937,0.61566
2808.29060,0.61493
2806.36183,0.61420
2804.43306,0.61349
2802.50429,0.61282
2800.57552,0.61218
2798.64675,0.61155
2796.71798,0.61092
2794.78921,0.61030
2792.86044,0.60971
2790.93166,0.60912
2789.00289,0.60851
2787.07412,0.60789
2785.14535,0.60728
2783.21658,0.60668
2781.28781,0.60610
2779.35904,0.60554
2777.43027,0.60499
2775.50150,0.60447
2773.57273,0.60398
2771.64395,0.60349
2769.71518,0.60299
2767.78641,0.60246
2765.85764,0.60192
2763.92887,0.60136
2762.00010,0.60080
2760.07133,0.60025
2758.14256,0.59971
2756.21379,0.59919
2754.28502,0.59868
2752.35624,0.59818
2750.42747,0.59769
2748.49870,0.59723
2746.56993,0.59676
2744.64116,0.59628
2742.71239,0.59581
2740.78362,0.59536
2738.85485,0.59490
2736.92608,0.59444
2734.99730,0.59398
2733.06853,0.59349
2731.13976,0.59299
2729.21099,0.59249
2727.28222,0.59200
2725.35345,0.59151
2723.42468,0.59100
2721.49591,0.59046
2719.56714,0.58991
2717.63837,0.58935
2715.70959,0.58879
2713.78082,0.58823
2711.85205,0.58766
2709.92328,0.58710
2707.99451,0.58656
2706.06574,0.58604
2704.13697,0.58553
2702.20820,0.58501
2700.27943,0.58449
2698.35066,0.58399
2696.42188,0.58351
2694.49311,0.58304
2692.56434,0.58257
2690.63557,0.58210
2688.70680,0.58165
2686.77803,0.58121
2684.84926,0.58076
2682.92049,0.58029
2680.99172,0.57981
2679.06295,0.57934
2677.13417,0.57888
2675.20540,0.57841
2673.27663,0.57793
2671.34786,0.57745
2669.41909,0.57699
2667.49032,0.57654
2665.56155,0.57610
2663.63278,0.57567
2661.70401,0.57524
2659.77524,0.57480
2657.84646,0.57435
2655.91769,0.57388
2653.98892,0.57340
2652.06015,0.57291
2650.13138,0.57244
2648.20261,0.57198
2646.27384,0.57153
2644.34507,0.57107
2642.41630,0.57063
2640.48752,0.57018
2638.55875,0.56973
2636.62998,0.56930
2634.70121,0.56886
2632.77244,0.56842
2630.84367,0.56797
2628.91490,0.56753
2626.98613,0.56709
2625.05736,0.56664
2623.12859,0.56618
2621.19981,0.56572
2619.27104,0.56526
2617.34227,0.56483
2615.41350,0.56439
2613.48473,0.56395
2611.55596,0.56351
2609.62719,0.56309
2607.69842,0.56267
2605.76965,0.56222
2603.84088,0.56176
2601.91210,0.56130
2599.98333,0.56083
2598.05456,0.56036
2596.12579,0.55990
2594.19702,0.55946
2592.26825,0.55902
2590.33948,0.55858
2588.41071,0.55814
2586.48194,0.55770
2584.55317,0.55727
2582.62439,0.55685
2580.69562,0.55643
2578.76685,0.55599
2576.83808,0.55555
2574.90931,0.55512
2572.98054,0.55468
2571.05177,0.55425
2569.12300,0.55380
2567.19423,0.55336
2565.26546,0.55292
2563.33668,0.55248
2561.40791,0.55206
2559.47914,0.55164
2557.55037,0.55122
2555.62160,0.55078
2553.69283,0.55035
2551.76406,0.54994
2549.83529,0.54953
2547.90652,0.54912
2545.97775,0.54869
2544.04897,0.54825
2542.12020,0.54781
2540.19143,0.54737
2538.26266,0.54695
2536.33389,0.54654
2534.40512,0.54613
2532.47635,0.54571
2530.54758,0.54529
2528.61881,0.54487
2526.69003,0.54444
2524.76126,0.54401
2522.83249,0.54359
2520.90372,0.54318
2518.97495,0.54276
2517.04618,0.54232
2515.11741,0.54187
2513.18864,0.54142
2511.25987,0.54098
2509.33110,0.54055
2507.40232,0.54012
2505.47355,0.53970
2503.54478,0.53928
2501.61601,0.53886
2499.68724,0.53844
2497.75847,0.53802
2495.82970,0.53761
2493.90093,0.53718
2491.97216,0.53674
2490.04339,0.53631
2488.11461,0.53588
2486.18584,0.53545
2484.25707,0.53502
2482.32830,0.53460
2480.39953,0.53419
2478.47076,0.53378
2476.54199,0.53338
2474.61322,0.53298
2472.68445,0.53258
2470.75568,0.53218
2468.82690,0.53177
2466.89813,0.53137
2464.96936,0.53097
2463.04059,0.53057
2461.11182,0.53017
2459.18305,0.52976
2457.25428,0.52934
2455.32551,0.52893
2453.39674,0.52854
2451.46797,0.52814
2449.53919,0.52775
2447.61042,0.52736
2445.68165,0.52698
2443.75288,0.52660
2441.82411,0.52622
2439.89534,0.52584
2437.96657,0.52546
2436.03780,0.52505
2434.10903,0.52465
2432.18025,0.52427
2430.25148,0.52388
2428.32271,0.52349
2426.39394,0.52311
2424.46517,0.52273
2422.53640,0.52236
2420.60763,0.52198
2418.67886,0.52161
2416.75009,0.52124
2414.82132,0.52087
2412.89254,0.52048
2410.96377,0.52009
2409.03500,0.51969
2407.10623,0.51929
2405.17746,0.51889
2403.24869,0.51850
2401.31992,0.51812
2399.39115,0.51775
2397.46238,0.51737
2395.53361,0.51698
2393.60483,0.51659
2391.67606,0.51620
2389.74729,0.51581
2387.81852,0.51544
2385.88975,0.51512
2383.96098,0.51495
2382.03221,0.51495
2380.10344,0.51516
2378.17467,0.51560
2376.24590,0.51627
2374.31712,0.51717
2372.38835,0.51831
2370.45958,0.51967
2368.53081,0.52119
2366.60204,0.52271
2364.67327,0.52411
2362.74450,0.52521
2360.81573,0.52584
2358.88696,0.52593
2356.95819,0.52528
2355.02941,0.52386
2353.10064,0.52189
2351.17187,0.51915
2349.24310,0.51614
2347.31433,0.51428
2345.38556,0.51484
2343.45679,0.51689
2341.52802,0.51795
2339.59925,0.51791
2337.67048,0.51741
2335.74170,0.51662
2333.81293,0.51571
2331.88416,0.51500
2329.95539,0.51449
2328.02662,0.51376
2326.09785,0.51271
2324.16908,0.51163
2322.24031,0.51067
2320.31154,0.50965
2318.38276,0.50841
2316.45399,0.50711
2314.52522,0.50604
2312.59645,0.50528
2310.66768,0.50459
2308.73891,0.50378
2306.81014,0.50284
2304.88137,0.50190
2302.95260,0.50106
2301.02383,0.50034
2299.09505,0.49968
2297.16628,0.49903
2295.23751,0.49839
2293.30874,0.49777
2291.37997,0.49718
2289.45120,0.49659
2287.52243,0.49602
2285.59366,0.49545
2283.66489,0.49491
2281.73612,0.49448
2279.80734,0.49414
2277.87857,0.49384
2275.94980,0.49353
2274.02103,0.49319
2272.09226,0.49283
2270.16349,0.49245
2268.23472,0.49206
2266.30595,0.49166
2264.37718,0.49126
2262.44841,0.49087
2260.51963,0.49048
2258.59086,0.49007
2256.66209,0.48965
2254.73332,0.48925
2252.80455,0.48885
2250.87578,0.48846
2248.94701,0.48807
2247.01824,0.48767
2245.08947,0.48728
2243.16070,0.48688
2241.23192,0.48648
2239.30315,0.48610
2237.37438,0.48574
2235.44561,0.48539
2233.51684,0.48505
2231.58807,0.48470
2229.65930,0.48435
2227.73053,0.48401
2225.80176,0.48366
2223.87298,0.48331
2221.94421,0.48297
2220.01544,0.48262
2218.08667,0.48226
2216.15790,0.48190
2214.22913,0.48155
2212.30036,0.48120
2210.37159,0.48086
2208.44282,0.48052
2206.51405,0.48019
2204.58527,0.47985
2202.65650,0.47952
2200.72773,0.47920
2198.79896,0.47888
2196.87019,0.47856
2194.94142,0.47825
2193.01265,0.47793
2191.08388,0.47761
2189.15511,0.47727
2187.22634,0.47695
2185.29756,0.47664
2183.36879,0.47634
2181.44002,0.47604
2179.51125,0.47575
2177.58248,0.47545
2175.65371,0.47515
2173.72494,0.47486
2171.79617,0.47457
2169.86740,0.47428
2167.93863,0.47399
2166.00985,0.47369
2164.08108,0.47340
2162.15231,0.47310
2160.22354,0.47280
2158.29477,0.47250
2156.36600,0.47220
2154.43723,0.47191
2152.50846,0.47163
2150.57969,0.47135
2148.65092,0.47109
2146.72214,0.47081
2144.79337,0.47054
2142.86460,0.47027
2140.93583,0.46999
2139.00706,0.46970
2137.07829,0.46941
2135.14952,0.46912
2133.22075,0.46882
2131.29198,0.46852
2129.36320,0.46822
2127.43443,0.46793
2125.50566,0.46765
2123.57689,0.46737
2121.64812,0.46709
2119.71935,0.46682
2117.79058,0.46656
2115.86181,0.46628
2113.93304,0.46600
2112.00427,0.46571
2110.07549,0.46543
2108.14672,0.46515
2106.21795,0.46487
2104.28918,0.46459
2102.36041,0.46432
2100.43164,0.46406
2098.50287,0.46381
2096.57410,0.46357
2094.64533,0.46334
2092.71656,0.46311
2090.78778,0.46288
2088.85901,0.46265
2086.93024,0.46241
2085.00147,0.46216
2083.07270,0.46191
2081.14393,0.46167
2079.21516,0.46143
2077.28639,0.46119
2075.35762,0.46094
2073.42885,0.46066
2071.50007,0.46038
2069.57130,0.46011
2067.64253,0.45985
2065.71376,0.45960
2063.78499,0.45936
2061.85622,0.45908
2059.92745,0.45878
2057.99868,0.45850
2056.06991,0.45822
2054.14114,0.45795
2052.21236,0.45768
2050.28359,0.45741
2048.35482,0.45714
2046.42605,0.45689
2044.49728,0.45666
2042.56851,0.45647
2040.63974,0.45628
2038.71097,0.45607
2036.78220,0.45585
2034.85343,0.45564
2032.92465,0.45543
2030.99588,0.45523
2029.06711,0.45504
2027.13834,0.45484
2025.20957,0.45462
2023.28080,0.45438
2021.35203,0.45416
2019.42326,0.45395
2017.49449,0.45378
2015.56571,0.45357
2013.63694,0.45327
2011.70817,0.45296
2009.77940,0.45268
2007.85063,0.45240
2005.92186,0.45211
2003.99309,0.45181
2002.06432,0.45150
2000.13555,0.45121
1998.20678,0.45092
1996.27800,0.45062
1994.34923,0.45038
1992.42046,0.45024
1990.49169,0.45004
1988.56292,0.44973
1986.63415,0.44940
1984.70538,0.44912
1982.77661,0.44887
1980.84784,0.44864
1978.91907,0.44841
1976.99029,0.44817
1975.06152,0.44793
1973.13275,0.44767
1971.20398,0.44741
1969.27521,0.44720
1967.34644,0.44705
1965.41767,0.44681
1963.48890,0.44646
1961.56013,0.44613
1959.63136,0.44586
1957.70258,0.44563
1955.77381,0.44540
1953.84504,0.44515
1951.91627,0.44490
1949.98750,0.44468
1948.05873,0.44447
1946.12996,0.44429
1944.20119,0.44420
1942.27242,0.44411
1940.34365,0.44382
1938.41487,0.44339
1936.48610,0.44304
1934.55733,0.44277
1932.62856,0.44251
1930.69979,0.44223
1928.77102,0.44193
1926.84225,0.44162
1924.91348,0.44141
1922.98471,0.44126
1921.05593,0.44102
1919.12716,0.44080
1917.19839,0.44064
1915.26962,0.44028
1913.34085,0.43983
1911.41208,0.43956
1909.48331,0.43941
1907.55454,0.43919
1905.62577,0.43887
1903.69700,0.43856
1901.76822,0.43831
1899.83945,0.43806
1897.91068,0.43783
1895.98191,0.43766
1894.05314,0.43744
1892.12437,0.43717
1890.19560,0.43703
1888.26683,0.43685
1886.33806,0.43648
1884.40929,0.43611
1882.48051,0.43585
1880.55174,0.43563
1878.62297,0.43544
1876.69420,0.43525
1874.76543,0.43506
1872.83666,0.43491
1870.90789,0.43501
1868.97912,0.43536
1867.05035,0.43537
1865.12158,0.43491
1863.19280,0.43450
1861.26403,0.43433
1859.33526,0.43426
1857.40649,0.43420
1855.47772,0.43414
1853.54895,0.43411
1851.62018,0.43410
1849.69141,0.43414
1847.76264,0.43425
1845.83387,0.43458
1843.90509,0.43507
1841.97632,0.43502
1840.04755,0.43457
1838.11878,0.43436
1836.19001,0.43436
1834.26124,0.43431
1832.33247,0.43441
1830.40370,0.43482
1828.47493,0.43505
1826.54615,0.43492
1824.61738,0.43483
1822.68861,0.43466
1820.75984,0.43441
1818.83107,0.43434
1816.90230,0.43443
1814.97353,0.43453
1813.04476,0.43475
1811.11599,0.43514
1809.18722,0.43548
1807.25844,0.43568
1805.32967,0.43596
1803.40090,0.43653
1801.47213,0.43743
1799.54336,0.43838
1797.61459,0.43910
1795.68582,0.43988
1793.75705,0.44133
1791.82828,0.44335
1789.89951,0.44489
1787.97073,0.44610
1786.04196,0.44793
1784.11319,0.45033
1782.18442,0.45283
1780.25565,0.45532
1778.32688,0.45756
1776.39811,0.45941
1774.46934,0.46136
1772.54057,0.46363
1770.61180,0.46519
1768.68302,0.46571
1766.75425,0.46592
1764.82548,0.46613
1762.89671,0.46667
1760.96794,0.46730
1759.03917,0.46746
1757.11040,0.46741
1755.18163,0.46717
1753.25286,0.46683
1751.32409,0.46682
1749.39531,0.46673
1747.46654,0.46596
1745.53777,0.46494
1743.60900,0.46413
1741.68023,0.46362
1739.75146,0.46322
1737.82269,0.46258
1735.89392,0.46230
1733.96515,0.46294
1732.03638,0.46317
1730.10760,0.46275
1728.17883,0.46265
1726.25006,0.46306
1724.32129,0.46391
1722.39252,0.46490
1720.46375,0.46602
1718.53498,0.46789
1716.60621,0.46987
1714.67744,0.47042
1712.74866,0.47008
1710.81989,0.46975
1708.89112,0.46966
1706.96235,0.46978
1705.03358,0.46959
1703.10481,0.46895
1701.17604,0.46859
1699.24727,0.46816
1697.31850,0.46687
1695.38973,0.46521
1693.46095,0.46346
1691.53218,0.46205
1689.60341,0.46129
1687.67464,0.46094
1685.74587,0.46133
1683.81710,0.46227
1681.88833,0.46188
1679.95956,0.46084
1678.03079,0.46048
1676.10202,0.46125
1674.17324,0.46247
1672.24447,0.46346
1670.31570,0.46490
1668.38693,0.46652
1666.45816,0.46743
1664.52939,0.46863
1662.60062,0.47079
1660.67185,0.47287
1658.74308,0.47437
1656.81431,0.47588
1654.88553,0.47863
1652.95676,0.48333
1651.02799,0.48607
1649.09922,0.48728
1647.17045,0.48987
1645.24168,0.49277
1643.31291,0.49442
1641.38414,0.49597
1639.45537,0.49802
1637.52660,0.50079
1635.59782,0.50435
1633.66905,0.50665
1631.74028,0.50732
1629.81151,0.50790
1627.88274,0.50866
1625.95397,0.50922
1624.02520,0.50971
1622.09643,0.50996
1620.16766,0.50974
1618.23888,0.50966
1616.31011,0.50947
1614.38134,0.50819
1612.45257,0.50650
1610.52380,0.50517
1608.59503,0.50406
1606.66626,0.50287
1604.73749,0.50158
1602.80872,0.50020
1600.87995,0.49863
1598.95117,0.49688
1597.02240,0.49502
1595.09363,0.49303
1593.16486,0.49077
1591.23609,0.48819
1589.30732,0.48530
1587.37855,0.48220
1585.44978,0.47903
1583.52101,0.47599
1581.59224,0.47322
1579.66346,0.47092
1577.73469,0.46923
1575.80592,0.46761
1573.87715,0.46552
1571.94838,0.46372
1570.01961,0.46253
1568.09084,0.46127
1566.16207,0.45979
1564.23330,0.45849
1562.30453,0.45770
1560.37575,0.45804
1558.44698,0.45865
1556.51821,0.45726
1554.58944,0.45533
1552.66067,0.45397
1550.73190,0.45305
1548.80313,0.45231
1546.87436,0.45179
1544.94559,0.45177
1543.01682,0.45222
1541.08804,0.45289
1539.15927,0.45269
1537.23050,0.45126
1535.30173,0.45027
1533.37296,0.45013
1531.44419,0.44990
1529.51542,0.44955
1527.58665,0.44976
1525.65788,0.45027
1523.72910,0.45083
1521.80033,0.45162
1519.87156,0.45213
1517.94279,0.45221
1516.01402,0.45220
1514.08525,0.45209
1512.15648,0.45219
1510.22771,0.45284
1508.29894,0.45432
1506.37017,0.45593
1504.44139,0.45582
1502.51262,0.45519
1500.58385,0.45544
1498.65508,0.45659
1496.72631,0.45787
1494.79754,0.45854
1492.86877,0.45905
1490.94000,0.46029
1489.01123,0.46197
1487.08246,0.46312
1485.15368,0.46400
1483.22491,0.46530
1481.29614,0.46719
1479.36737,0.46946
1477.43860,0.47223
1475.50983,0.47581
1473.58106,0.48043
1471.65229,0.48534
1469.72352,0.48905
1467.79475,0.49212
1465.86597,0.49554
1463.93720,0.49858
1462.00843,0.50033
1460.07966,0.50168
1458.15089,0.50352
1456.22212,0.50466
1454.29335,0.50401
1452.36458,0.50298
1450.43581,0.50238
1448.50704,0.50203
1446.57826,0.50142
1444.64949,0.50049
1442.72072,0.49959
1440.79195,0.49892
1438.86318,0.49873
1436.93441,0.49904
1435.00564,0.49909
1433.07687,0.49883
1431.14810,0.49905
1429.21933,0.49972
1427.29055,0.50048
1425.36178,0.50150
1423.43301,0.50273
1421.50424,0.50408
1419.57547,0.50582
1417.64670,0.50734
1415.71793,0.50802
1413.78916,0.50880
1411.86039,0.51038
1409.93161,0.51300
1408.00284,0.51632
1406.07407,0.51902
1404.14530,0.51960
1402.21653,0.51875
1400.28776,0.51898
1398.35899,0.52118
1396.43022,0.52409
1394.50145,0.52650
1392.57268,0.52852
1390.64390,0.53131
1388.71513,0.53626
1386.78636,0.54359
1384.85759,0.55114
1382.92882,0.55706
1381.00005,0.56106
1379.07128,0.56325
1377.14251,0.56349
1375.21374,0.56123
1373.28497,0.55693
1371.35619,0.55296
1369.42742,0.55099
1367.49865,0.55024
1365.56988,0.54906
1363.64111,0.54680
1361.71234,0.54392
1359.78357,0.54132
1357.85480,0.53932
1355.92603,0.53776
1353.99726,0.53641
1352.06848,0.53525
1350.13971,0.53435
1348.21094,0.53368
1346.28217,0.53323
1344.35340,0.53297
1342.42463,0.53297
1340.49586,0.53322
1338.56709,0.53353
1336.63832,0.53377
1334.70955,0.53409
1332.78077,0.53466
1330.85200,0.53550
1328.92323,0.53650
1326.99446,0.53760
1325.06569,0.53878
1323.13692,0.54006
1321.20815,0.54147
1319.27938,0.54300
1317.35061,0.54460
1315.42183,0.54627
1313.49306,0.54806
1311.56429,0.54997
1309.63552,0.55195
1307.70675,0.55401
1305.77798,0.55613
1303.84921,0.55826
1301.92044,0.56039
1299.99167,0.56247
1298.06290,0.56446
1296.13412,0.56635
1294.20535,0.56815
1292.27658,0.56992
1290.34781,0.57168
1288.41904,0.57349
1286.49027,0.57534
1284.56150,0.57727
1282.63273,0.57929
1280.70396,0.58146
1278.77519,0.58381
1276.84641,0.58629
1274.91764,0.58886
1272.98887,0.59151
1271.06010,0.59425
1269.13133,0.59707
1267.20256,0.59997
1265.27379,0.60295
1263.34502,0.60602
1261.41625,0.60917
1259.48748,0.61237
1257.55870,0.61567
1255.62993,0.61914
1253.70116,0.62286
1251.77239,0.62687
1249.84362,0.63111
1247.91485,0.63550
1245.98608,0.63995
1244.05731,0.64441
1242.12854,0.64881
1240.19977,0.65321
1238.27099,0.65762
1236.34222,0.66207
1234.41345,0.66655
1232.48468,0.67110
1230.55591,0.67578
1228.62714,0.68061
1226.69837,0.68558
1224.76960,0.69069
1222.84083,0.69596
1220.91206,0.70143
1218.98328,0.70716
1217.05451,0.71327
1215.12574,0.71982
1213.19697,0.72684
1211.26820,0.73423
1209.33943,0.74177
1207.41066,0.74923
1205.48189,0.75644
1203.55312,0.76342
1201.62434,0.77029
1199.69557,0.77713
1197.76680,0.78405
1195.83803,0.79109
1193.90926,0.79825
1191.98049,0.80554
1190.05172,0.81294
1188.12295,0.82041
1186.19418,0.82786
1184.26541,0.83522
1182.33663,0.84252
1180.40786,0.84978
1178.47909,0.85690
1176.55032,0.86392
1174.62155,0.87096
1172.69278,0.87796
1170.76401,0.88482
1168.83524,0.89148
1166.90647,0.89794
1164.97770,0.90419
1163.04892,0.91018
1161.12015,0.91600
1159.19138,0.92176
1157.26261,0.92757
1155.33384,0.93346
1153.40507,0.93949
1151.47630,0.94570
1149.54753,0.95214
1147.61876,0.95885
1145.68999,0.96569
1143.76121,0.97232
1141.83244,0.97833
1139.90367,0.98400
1137.97490,0.99034
1136.04613,0.99822
1134.11736,1.00792
1132.18859,1.01930
1130.25982,1.03191
1128.33105,1.04472
1126.40228,1.05655
1124.47350,1.06631
1122.54473,1.07306
1120.61596,1.07683
1118.68719,1.07898
1116.75842,1.08153
1114.82965,1.08609
1112.90088,1.09324
1110.97211,1.10277
1109.04334,1.11418
1107.11456,1.12720
1105.18579,1.14172
1103.25702,1.15742
1101.32825,1.17358
1099.39948,1.18958
1097.47071,1.20524
1095.54194,1.22024
1093.61317,1.23409
1091.68440,1.24646
1089.75563,1.25740
1087.82685,1.26718
1085.89808,1.27614
1083.96931,1.28465
1082.04054,1.29266
1080.11177,1.29981
1078.18300,1.30618
1076.25423,1.31237
1074.32546,1.31857
1072.39669,1.32453
1070.46792,1.33003
1068.53914,1.33477
1066.61037,1.33878
1064.68160,1.34211
1062.75283,1.34475
1060.82406,1.34645
1058.89529,1.34670
1056.96652,1.34495
1055.03775,1.34138
1053.10898,1.33673
1051.18021,1.33099
1049.25143,1.32399
1047.32266,1.31587
1045.39389,1.30722
1043.46512,1.29956
1041.53635,1.29476
1039.60758,1.29346
1037.67881,1.29526
1035.75004,1.29997
1033.82127,1.30725
1031.89250,1.31654
1029.96372,1.32723
1028.03495,1.33844
1026.10618,1.34964
1024.17741,1.36095
1022.24864,1.37295
1020.31987,1.38609
1018.39110,1.40022
1016.46233,1.41451
1014.53356,1.42827
1012.60478,1.44156
1010.67601,1.45441
1008.74724,1.46652
1006.81847,1.47718
1004.88970,1.48557
1002.96093,1.49096
1001.03216,1.49288
999.10339,1.49178
997.17462,1.48868
995.24585,1.48525
993.31707,1.48337
991.38830,1.48462
989.45953,1.49004
987.53076,1.49965
985.60199,1.51237
983.67322,1.52626
981.74445,1.53964
979.81568,1.55140
977.88691,1.56055
975.95814,1.56555
974.02936,1.56401
972.10059,1.55466
970.17182,1.53887
968.24305,1.51940
966.31428,1.49867
964.38551,1.47864
962.45674,1.46137
960.52797,1.45004
958.59920,1.44985
956.67043,1.46518
954.74165,1.49344
952.81288,1.52295
950.88411,1.54167
948.95534,1.54700
947.02657,1.54377
945.09780,1.53730
943.16903,1.53096
941.24026,1.52652
939.31149,1.52455
937.38272,1.52492
935.45394,1.52759
933.52517,1.53264
931.59640,1.53981
929.66763,1.54824
927.73886,1.55675
925.81009,1.56396
923.88132,1.56801
921.95255,1.56721
920.02378,1.56112
918.09501,1.55034
916.16623,1.53630
914.23746,1.52184
912.30869,1.51018
910.37992,1.50294
908.45115,1.50065
906.52238,1.50394
904.59361,1.51318
902.66484,1.52784
900.73607,1.54652
898.80729,1.56782
896.87852,1.59058
894.94975,1.61385
893.02098,1.63696
891.09221,1.65897
889.16344,1.67852
887.23467,1.69382
885.30590,1.70327
883.37713,1.70545
881.44836,1.69971
879.51958,1.68624
877.59081,1.66606
875.66204,1.64083
873.73327,1.61193
871.80450,1.58067
869.87573,1.54820
867.94696,1.51529
866.01819,1.48194
864.08942,1.44811
862.16065,1.41430
860.23187,1.38083
858.30310,1.34763
856.37433,1.31407
854.44556,1.27946
852.51679,1.24357
850.58802,1.20692
848.65925,1.17165
846.73048,1.14170
844.80171,1.12173
842.87294,1.11367
840.94416,1.11359
839.01539,1.11197
837.08662,1.09983
835.15785,1.07555
833.22908,1.04359
831.30031,1.00914
829.37154,0.97518
827.44277,0.94285
825.51400,0.91234
823.58523,0.88363
821.65645,0.85670
819.72768,0.83146
817.79891,0.80797
815.87014,0.78631
813.94137,0.76650
812.01260,0.74841
810.08383,0.73183
808.15506,0.71658
806.22629,0.70238
804.29751,0.68906
802.36874,0.67644
800.43997,0.66438
798.51120,0.65274
796.58243,0.64138
794.65366,0.63023
792.72489,0.61922
790.79612,0.60842
788.86735,0.59791
786.93858,0.58773
785.00980,0.57789
783.08103,0.56835
781.15226,0.55906
779.22349,0.54996
777.29472,0.54109
775.36595,0.53249
773.43718,0.52424
771.50841,0.51642
769.57964,0.50907
767.65087,0.50225
765.72209,0.49591
763.79332,0.48992
761.86455,0.48418
759.93578,0.47863
758.00701,0.47328
756.07824,0.46827
754.14947,0.46399
752.22070,0.46087
750.29193,0.45938
748.36316,0.45983
746.43438,0.46175
744.50561,0.46330
742.57684,0.46262
740.64807,0.46000
738.71930,0.45782
736.79053,0.45818
734.86176,0.46153
732.93299,0.46731
731.00422,0.47481
729.07545,0.48279
727.14667,0.48858
725.21790,0.48918
723.28913,0.48369
721.36036,0.47361
719.43159,0.46155
717.50282,0.45013
715.57405,0.44053
713.64528,0.43274
711.71651,0.42658
709.78773,0.42186
707.85896,0.41837
705.93019,0.41603
704.00142,0.41491
702.07265,0.41527
700.14388,0.41748
698.21511,0.42186
696.28634,0.42854
694.35757,0.43723
692.42880,0.44697
690.50002,0.45589
688.57125,0.46173
686.64248,0.46315
684.71371,0.46094
682.78494,0.45740
680.85617,0.45453
678.92740,0.45273
676.99863,0.45082
675.06986,0.44753
673.14109,0.44344
671.21231,0.44051
669.28354,0.43986
667.35477,0.44183
665.42600,0.44579
663.49723,0.45270
661.56846,0.46394
659.63969,0.47907
657.71092,0.49732
655.78215,0.51815
653.85338,0.54051
651.92460,0.56318
649.99583,0.58556
648.06706,0.60714
646.13829,0.62643
644.20952,0.64162
642.28075,0.65099
640.35198,0.65395
638.42321,0.65160
636.49444,0.64640
634.56567,0.64068
632.63689,0.63635
630.70812,0.63451
628.77935,0.63565
626.85058,0.64029
624.92181,0.64866
622.99304,0.66076
621.06427,0.67594
619.13550,0.69376
617.20673,0.71375
615.27796,0.73418
613.34918,0.75381
611.42041,0.77222
609.49164,0.78926
607.56287,0.80496
605.63410,0.81950
603.70533,0.83239
601.77656,0.84272
599.84779,0.85008
597.91902,0.85410
595.99024,0.85467
594.06147,0.85119
592.13270,0.84337
590.20393,0.83215
588.27516,0.81965
586.34639,0.80787
584.41762,0.79804
582.48885,0.79158
580.56008,0.78910
578.63131,0.79076
576.70253,0.79670
574.77376,0.80695
572.84499,0.82115
570.91622,0.83888
568.98745,0.85966
567.05868,0.88165
565.12991,0.90283
563.20114,0.92212
561.27237,0.93992
559.34360,0.95814
557.41482,0.97904
555.48605,1.00425
553.55728,1.03369
551.62851,1.06710
549.69974,1.10348
547.77097,1.14039
545.84220,1.17502
543.91343,1.20396
541.98466,1.22513
540.05589,1.23902
538.12711,1.24828
536.19834,1.25351
534.26957,1.25392
532.34080,1.25202
530.41203,1.25391
528.48326,1.26548
526.55449,1.28830
524.62572,1.31924
522.69695,1.35091
520.76818,1.37800
518.83940,1.39993
516.91063,1.41825
514.98186,1.43437
513.05309,1.44790
511.12432,1.45953
509.19555,1.47014
507.26678,1.48021
505.33801,1.48848
503.40924,1.49258
501.48046,1.49093
499.55169,1.48010
497.62292,1.45649
495.69415,1.42035
493.76538,1.37685
491.83661,1.32920
489.90784,1.27889
487.97907,1.23003
486.05030,1.18558
484.12153,1.14658
482.19275,1.11468
480.26398,1.09100
478.33521,1.07381
476.40644,1.06060
474.47767,1.05016
472.54890,1.04324
470.62013,1.04137
468.69136,1.04288
466.76259,1.04486
464.83382,1.04683
462.90504,1.04938
460.97627,1.05249
459.04750,1.05625
457.11873,1.05974
455.18996,1.06079
453.26119,1.05953
451.33242,1.05842
449.40365,1.05986
447.47488,1.06368
445.54611,1.06786
443.61733,1.07206
441.68856,1.07843
439.75979,1.08838
437.83102,1.10288
435.90225,1.12355
433.97348,1.14911
432.04471,1.17652
430.11594,1.20509
428.18717,1.23483
426.25840,1.26303
424.32962,1.28594
422.40085,1.30157
420.47208,1.31351
418.54331,1.33143
416.61454,1.35512
414.68577,1.37656
412.75700,1.39146
410.82823,1.39623
408.89946,1.39267
406.97069,1.38618
405.04191,1.37720
403.11314,1.36323
401.18437,1.34708
399.25560,1.32742
397.32683,1.30108
395.39806,1.26990
393.46929,1.23596
391.54052,1.20004
389.61175,1.16226
387.68297,1.12751
385.75420,1.09349
383.82543,1.05986
381.89666,1.03665
379.96789,1.02892
378.03912,1.03588
376.11035,1.05782
374.18158,1.08544
372.25281,1.09582
370.32404,1.09365
368.39526,1.08207
366.46649,1.05824
364.53772,1.03146
362.60895,0.99974
360.68018,0.97167
358.75141,0.93840
356.82264,0.90049
354.89387,0.89084
352.96510,0.95734
351.03633,1.14636
349.10755,1.47258
