# 18 FEB 2015 - B.L. de Vries
# Charsonville, H6, Sample 2, Take 1
# m = 1,3 mgr, KBr = 670 mgr
# Signal = 4400
# Resolution / sample scan time / bg scan time / range = 4 / 64 / 64 / 4000-300
# Source: glow-bar, Machine: Equinox 55, DTGS
# k(cm-1), absorbance
3996.41355,1.10159
3994.48478,1.10117
3992.55601,1.10073
3990.62724,1.10023
3988.69847,1.09975
3986.76970,1.09924
3984.84093,1.09868
3982.91215,1.09811
3980.98338,1.09756
3979.05461,1.09698
3977.12584,1.09643
3975.19707,1.09603
3973.26830,1.09566
3971.33953,1.09515
3969.41076,1.09459
3967.48199,1.09405
3965.55322,1.09340
3963.62444,1.09276
3961.69567,1.09240
3959.76690,1.09210
3957.83813,1.09163
3955.90936,1.09106
3953.98059,1.09037
3952.05182,1.08960
3950.12305,1.08914
3948.19428,1.08907
3946.26550,1.08860
3944.33673,1.08782
3942.40796,1.08768
3940.47919,1.08753
3938.55042,1.08668
3936.62165,1.08557
3934.69288,1.08460
3932.76411,1.08439
3930.83534,1.08481
3928.90657,1.08436
3926.97779,1.08311
3925.04902,1.08246
3923.12025,1.08221
3921.19148,1.08132
3919.26271,1.08059
3917.33394,1.08093
3915.40517,1.08129
3913.47640,1.08055
3911.54763,1.07935
3909.61886,1.07802
3907.69008,1.07616
3905.76131,1.07476
3903.83254,1.07524
3901.90377,1.07656
3899.97500,1.07751
3898.04623,1.07764
3896.11746,1.07598
3894.18869,1.07355
3892.25992,1.07315
3890.33115,1.07395
3888.40237,1.07261
3886.47360,1.07134
3884.54483,1.07195
3882.61606,1.07144
3880.68729,1.07112
3878.75852,1.07148
3876.82975,1.06979
3874.90098,1.06793
3872.97221,1.06708
3871.04344,1.06696
3869.11466,1.06807
3867.18589,1.06769
3865.25712,1.06640
3863.32835,1.06684
3861.39958,1.06707
3859.47081,1.06519
3857.54204,1.06151
3855.61327,1.05837
3853.68450,1.06176
3851.75572,1.06773
3849.82695,1.06695
3847.89818,1.06329
3845.96941,1.06042
3844.04064,1.05908
3842.11187,1.05836
3840.18310,1.05780
3838.25433,1.05888
3836.32556,1.06038
3834.39679,1.05982
3832.46801,1.05870
3830.53924,1.05795
3828.61047,1.05684
3826.68170,1.05573
3824.75293,1.05396
3822.82416,1.05229
3820.89539,1.05383
3818.96662,1.05488
3817.03785,1.05403
3815.10908,1.05492
3813.18030,1.05467
3811.25153,1.05180
3809.32276,1.04912
3807.39399,1.04911
3805.46522,1.04963
3803.53645,1.04818
3801.60768,1.04871
3799.67891,1.05037
3797.75014,1.04951
3795.82137,1.04872
3793.89259,1.04818
3791.96382,1.04685
3790.03505,1.04570
3788.10628,1.04491
3786.17751,1.04443
3784.24874,1.04418
3782.31997,1.04335
3780.39120,1.04291
3778.46243,1.04365
3776.53366,1.04345
3774.60488,1.04172
3772.67611,1.03989
3770.74734,1.03957
3768.81857,1.04040
3766.88980,1.04046
3764.96103,1.03996
3763.03226,1.03877
3761.10349,1.03719
3759.17472,1.03717
3757.24594,1.03727
3755.31717,1.03517
3753.38840,1.03265
3751.45963,1.03358
3749.53086,1.03648
3747.60209,1.03515
3745.67332,1.03323
3743.74455,1.03577
3741.81578,1.03647
3739.88701,1.03287
3737.95823,1.02963
3736.02946,1.02992
3734.10069,1.03242
3732.17192,1.03349
3730.24315,1.03210
3728.31438,1.02978
3726.38561,1.02869
3724.45684,1.02902
3722.52807,1.02933
3720.59930,1.02937
3718.67052,1.02887
3716.74175,1.02732
3714.81298,1.02500
3712.88421,1.02410
3710.95544,1.02641
3709.02667,1.02823
3707.09790,1.02723
3705.16913,1.02506
3703.24036,1.02400
3701.31159,1.02492
3699.38281,1.02543
3697.45404,1.02461
3695.52527,1.02346
3693.59650,1.02218
3691.66773,1.02162
3689.73896,1.02394
3687.81019,1.02740
3685.88142,1.02770
3683.95265,1.02588
3682.02388,1.02430
3680.09510,1.02299
3678.16633,1.02145
3676.23756,1.02237
3674.30879,1.02504
3672.38002,1.02402
3670.45125,1.02321
3668.52248,1.02500
3666.59371,1.02475
3664.66494,1.02292
3662.73617,1.02188
3660.80739,1.02127
3658.87862,1.02047
3656.94985,1.02092
3655.02108,1.02186
3653.09231,1.02036
3651.16354,1.01902
3649.23477,1.02235
3647.30600,1.02659
3645.37723,1.02672
3643.44845,1.02503
3641.51968,1.02412
3639.59091,1.02425
3637.66214,1.02451
3635.73337,1.02476
3633.80460,1.02480
3631.87583,1.02406
3629.94706,1.02530
3628.01829,1.03048
3626.08952,1.03278
3624.16074,1.03133
3622.23197,1.03003
3620.30320,1.03109
3618.37443,1.03432
3616.44566,1.03620
3614.51689,1.03665
3612.58812,1.03768
3610.65935,1.03903
3608.73058,1.04096
3606.80181,1.04333
3604.87303,1.04432
3602.94426,1.04457
3601.01549,1.04576
3599.08672,1.04751
3597.15795,1.04891
3595.22918,1.05063
3593.30041,1.05243
3591.37164,1.05293
3589.44287,1.05347
3587.51410,1.05666
3585.58532,1.06021
3583.65655,1.06123
3581.72778,1.06144
3579.79901,1.06229
3577.87024,1.06350
3575.94147,1.06478
3574.01270,1.06601
3572.08393,1.06658
3570.15516,1.06659
3568.22639,1.06808
3566.29761,1.07156
3564.36884,1.07364
3562.44007,1.07378
3560.51130,1.07406
3558.58253,1.07485
3556.65376,1.07551
3554.72499,1.07614
3552.79622,1.07729
3550.86745,1.07848
3548.93867,1.07909
3547.00990,1.08007
3545.08113,1.08188
3543.15236,1.08335
3541.22359,1.08399
3539.29482,1.08447
3537.36605,1.08540
3535.43728,1.08662
3533.50851,1.08753
3531.57974,1.08818
3529.65096,1.08917
3527.72219,1.09050
3525.79342,1.09176
3523.86465,1.09299
3521.93588,1.09421
3520.00711,1.09518
3518.07834,1.09608
3516.14957,1.09705
3514.22080,1.09792
3512.29203,1.09875
3510.36325,1.09984
3508.43448,1.10101
3506.50571,1.10174
3504.57694,1.10251
3502.64817,1.10385
3500.71940,1.10500
3498.79063,1.10561
3496.86186,1.10626
3494.93309,1.10710
3493.00432,1.10781
3491.07554,1.10840
3489.14677,1.10918
3487.21800,1.11007
3485.28923,1.11072
3483.36046,1.11135
3481.43169,1.11229
3479.50292,1.11317
3477.57415,1.11365
3475.64538,1.11419
3473.71661,1.11498
3471.78783,1.11576
3469.85906,1.11644
3467.93029,1.11713
3466.00152,1.11780
3464.07275,1.11839
3462.14398,1.11898
3460.21521,1.11958
3458.28644,1.12006
3456.35767,1.12047
3454.42889,1.12088
3452.50012,1.12121
3450.57135,1.12135
3448.64258,1.12158
3446.71381,1.12211
3444.78504,1.12248
3442.85627,1.12241
3440.92750,1.12217
3438.99873,1.12184
3437.06996,1.12144
3435.14118,1.12103
3433.21241,1.12057
3431.28364,1.12002
3429.35487,1.11925
3427.42610,1.11829
3425.49733,1.11724
3423.56856,1.11612
3421.63979,1.11505
3419.71102,1.11398
3417.78225,1.11266
3415.85347,1.11107
3413.92470,1.10947
3411.99593,1.10796
3410.06716,1.10642
3408.13839,1.10477
3406.20962,1.10306
3404.28085,1.10136
3402.35208,1.09962
3400.42331,1.09780
3398.49454,1.09591
3396.56576,1.09401
3394.63699,1.09209
3392.70822,1.09015
3390.77945,1.08812
3388.85068,1.08593
3386.92191,1.08366
3384.99314,1.08139
3383.06437,1.07902
3381.13560,1.07649
3379.20683,1.07387
3377.27805,1.07120
3375.34928,1.06837
3373.42051,1.06537
3371.49174,1.06227
3369.56297,1.05914
3367.63420,1.05605
3365.70543,1.05299
3363.77666,1.04991
3361.84789,1.04682
3359.91912,1.04376
3357.99034,1.04072
3356.06157,1.03776
3354.13280,1.03486
3352.20403,1.03196
3350.27526,1.02909
3348.34649,1.02634
3346.41772,1.02370
3344.48895,1.02113
3342.56018,1.01858
3340.63140,1.01607
3338.70263,1.01361
3336.77386,1.01123
3334.84509,1.00899
3332.91632,1.00680
3330.98755,1.00459
3329.05878,1.00239
3327.13001,1.00025
3325.20124,0.99816
3323.27247,0.99614
3321.34369,0.99419
3319.41492,0.99232
3317.48615,0.99049
3315.55738,0.98866
3313.62861,0.98684
3311.69984,0.98507
3309.77107,0.98340
3307.84230,0.98180
3305.91353,0.98023
3303.98476,0.97869
3302.05598,0.97722
3300.12721,0.97578
3298.19844,0.97434
3296.26967,0.97291
3294.34090,0.97151
3292.41213,0.97020
3290.48336,0.96898
3288.55459,0.96780
3286.62582,0.96659
3284.69705,0.96534
3282.76827,0.96413
3280.83950,0.96300
3278.91073,0.96190
3276.98196,0.96081
3275.05319,0.95979
3273.12442,0.95883
3271.19565,0.95783
3269.26688,0.95680
3267.33811,0.95578
3265.40934,0.95476
3263.48056,0.95370
3261.55179,0.95261
3259.62302,0.95150
3257.69425,0.95037
3255.76548,0.94930
3253.83671,0.94829
3251.90794,0.94720
3249.97917,0.94598
3248.05040,0.94472
3246.12162,0.94351
3244.19285,0.94236
3242.26408,0.94115
3240.33531,0.93986
3238.40654,0.93855
3236.47777,0.93724
3234.54900,0.93594
3232.62023,0.93467
3230.69146,0.93343
3228.76269,0.93219
3226.83391,0.93095
3224.90514,0.92970
3222.97637,0.92845
3221.04760,0.92725
3219.11883,0.92603
3217.19006,0.92471
3215.26129,0.92340
3213.33252,0.92219
3211.40375,0.92105
3209.47498,0.91991
3207.54620,0.91875
3205.61743,0.91756
3203.68866,0.91636
3201.75989,0.91509
3199.83112,0.91380
3197.90235,0.91258
3195.97358,0.91140
3194.04481,0.91017
3192.11604,0.90893
3190.18727,0.90773
3188.25849,0.90656
3186.32972,0.90539
3184.40095,0.90426
3182.47218,0.90313
3180.54341,0.90201
3178.61464,0.90095
3176.68587,0.89993
3174.75710,0.89889
3172.82833,0.89781
3170.89956,0.89674
3168.97078,0.89569
3167.04201,0.89466
3165.11324,0.89364
3163.18447,0.89262
3161.25570,0.89161
3159.32693,0.89065
3157.39816,0.88970
3155.46939,0.88870
3153.54062,0.88766
3151.61185,0.88666
3149.68307,0.88576
3147.75430,0.88492
3145.82553,0.88407
3143.89676,0.88318
3141.96799,0.88225
3140.03922,0.88128
3138.11045,0.88035
3136.18168,0.87948
3134.25291,0.87864
3132.32413,0.87782
3130.39536,0.87696
3128.46659,0.87608
3126.53782,0.87523
3124.60905,0.87437
3122.68028,0.87350
3120.75151,0.87263
3118.82274,0.87176
3116.89397,0.87094
3114.96520,0.87014
3113.03642,0.86935
3111.10765,0.86854
3109.17888,0.86771
3107.25011,0.86692
3105.32134,0.86614
3103.39257,0.86536
3101.46380,0.86460
3099.53503,0.86383
3097.60626,0.86306
3095.67749,0.86228
3093.74871,0.86146
3091.81994,0.86059
3089.89117,0.85973
3087.96240,0.85893
3086.03363,0.85815
3084.10486,0.85738
3082.17609,0.85660
3080.24732,0.85581
3078.31855,0.85508
3076.38978,0.85440
3074.46100,0.85373
3072.53223,0.85298
3070.60346,0.85216
3068.67469,0.85132
3066.74592,0.85060
3064.81715,0.84999
3062.88838,0.84935
3060.95961,0.84863
3059.03084,0.84788
3057.10207,0.84717
3055.17329,0.84649
3053.24452,0.84574
3051.31575,0.84495
3049.38698,0.84425
3047.45821,0.84360
3045.52944,0.84291
3043.60067,0.84221
3041.67190,0.84155
3039.74313,0.84092
3037.81435,0.84030
3035.88558,0.83965
3033.95681,0.83904
3032.02804,0.83850
3030.09927,0.83798
3028.17050,0.83741
3026.24173,0.83681
3024.31296,0.83622
3022.38419,0.83567
3020.45542,0.83511
3018.52664,0.83456
3016.59787,0.83406
3014.66910,0.83357
3012.74033,0.83311
3010.81156,0.83273
3008.88279,0.83239
3006.95402,0.83202
3005.02525,0.83162
3003.09648,0.83124
3001.16771,0.83083
2999.23893,0.83040
2997.31016,0.82999
2995.38139,0.82959
2993.45262,0.82919
2991.52385,0.82884
2989.59508,0.82855
2987.66631,0.82825
2985.73754,0.82796
2983.80877,0.82765
2981.88000,0.82734
2979.95122,0.82709
2978.02245,0.82694
2976.09368,0.82686
2974.16491,0.82689
2972.23614,0.82707
2970.30737,0.82736
2968.37860,0.82772
2966.44983,0.82806
2964.52106,0.82826
2962.59229,0.82825
2960.66351,0.82799
2958.73474,0.82750
2956.80597,0.82687
2954.87720,0.82619
2952.94843,0.82548
2951.01966,0.82468
2949.09089,0.82367
2947.16212,0.82248
2945.23335,0.82134
2943.30457,0.82046
2941.37580,0.81999
2939.44703,0.81993
2937.51826,0.82023
2935.58949,0.82078
2933.66072,0.82144
2931.73195,0.82214
2929.80318,0.82280
2927.87441,0.82333
2925.94564,0.82361
2924.01686,0.82359
2922.08809,0.82321
2920.15932,0.82234
2918.23055,0.82075
2916.30178,0.81843
2914.37301,0.81572
2912.44424,0.81311
2910.51547,0.81088
2908.58670,0.80900
2906.65793,0.80734
2904.72915,0.80582
2902.80038,0.80439
2900.87161,0.80302
2898.94284,0.80167
2897.01407,0.80036
2895.08530,0.79916
2893.15653,0.79810
2891.22776,0.79717
2889.29899,0.79630
2887.37022,0.79552
2885.44144,0.79487
2883.51267,0.79433
2881.58390,0.79383
2879.65513,0.79335
2877.72636,0.79283
2875.79759,0.79220
2873.86882,0.79153
2871.94005,0.79094
2870.01128,0.79041
2868.08251,0.78985
2866.15373,0.78921
2864.22496,0.78847
2862.29619,0.78772
2860.36742,0.78715
2858.43865,0.78683
2856.50988,0.78661
2854.58111,0.78627
2852.65234,0.78565
2850.72357,0.78468
2848.79480,0.78339
2846.86602,0.78205
2844.93725,0.78084
2843.00848,0.77979
2841.07971,0.77878
2839.15094,0.77774
2837.22217,0.77660
2835.29340,0.77528
2833.36463,0.77382
2831.43586,0.77239
2829.50708,0.77110
2827.57831,0.76994
2825.64954,0.76890
2823.72077,0.76799
2821.79200,0.76718
2819.86323,0.76640
2817.93446,0.76564
2816.00569,0.76487
2814.07692,0.76410
2812.14815,0.76335
2810.21937,0.76265
2808.29060,0.76198
2806.36183,0.76132
2804.43306,0.76064
2802.50429,0.75996
2800.57552,0.75925
2798.64675,0.75855
2796.71798,0.75787
2794.78921,0.75722
2792.86044,0.75654
2790.93166,0.75586
2789.00289,0.75519
2787.07412,0.75457
2785.14535,0.75395
2783.21658,0.75330
2781.28781,0.75265
2779.35904,0.75200
2777.43027,0.75135
2775.50150,0.75070
2773.57273,0.75008
2771.64395,0.74950
2769.71518,0.74891
2767.78641,0.74829
2765.85764,0.74765
2763.92887,0.74701
2762.00010,0.74639
2760.07133,0.74578
2758.14256,0.74517
2756.21379,0.74454
2754.28502,0.74393
2752.35624,0.74333
2750.42747,0.74271
2748.49870,0.74209
2746.56993,0.74148
2744.64116,0.74089
2742.71239,0.74029
2740.78362,0.73968
2738.85485,0.73906
2736.92608,0.73846
2734.99730,0.73787
2733.06853,0.73728
2731.13976,0.73668
2729.21099,0.73607
2727.28222,0.73545
2725.35345,0.73485
2723.42468,0.73424
2721.49591,0.73361
2719.56714,0.73297
2717.63837,0.73233
2715.70959,0.73170
2713.78082,0.73107
2711.85205,0.73044
2709.92328,0.72981
2707.99451,0.72916
2706.06574,0.72854
2704.13697,0.72792
2702.20820,0.72730
2700.27943,0.72667
2698.35066,0.72606
2696.42188,0.72545
2694.49311,0.72484
2692.56434,0.72423
2690.63557,0.72363
2688.70680,0.72304
2686.77803,0.72243
2684.84926,0.72183
2682.92049,0.72123
2680.99172,0.72062
2679.06295,0.72001
2677.13417,0.71940
2675.20540,0.71879
2673.27663,0.71817
2671.34786,0.71757
2669.41909,0.71698
2667.49032,0.71641
2665.56155,0.71582
2663.63278,0.71523
2661.70401,0.71463
2659.77524,0.71401
2657.84646,0.71338
2655.91769,0.71275
2653.98892,0.71215
2652.06015,0.71156
2650.13138,0.71096
2648.20261,0.71036
2646.27384,0.70976
2644.34507,0.70917
2642.41630,0.70857
2640.48752,0.70796
2638.55875,0.70733
2636.62998,0.70671
2634.70121,0.70611
2632.77244,0.70551
2630.84367,0.70492
2628.91490,0.70433
2626.98613,0.70375
2625.05736,0.70316
2623.12859,0.70257
2621.19981,0.70197
2619.27104,0.70137
2617.34227,0.70078
2615.41350,0.70017
2613.48473,0.69955
2611.55596,0.69893
2609.62719,0.69835
2607.69842,0.69777
2605.76965,0.69719
2603.84088,0.69659
2601.91210,0.69599
2599.98333,0.69539
2598.05456,0.69479
2596.12579,0.69420
2594.19702,0.69362
2592.26825,0.69304
2590.33948,0.69246
2588.41071,0.69187
2586.48194,0.69128
2584.55317,0.69071
2582.62439,0.69014
2580.69562,0.68955
2578.76685,0.68895
2576.83808,0.68834
2574.90931,0.68775
2572.98054,0.68714
2571.05177,0.68653
2569.12300,0.68593
2567.19423,0.68535
2565.26546,0.68477
2563.33668,0.68418
2561.40791,0.68360
2559.47914,0.68303
2557.55037,0.68245
2555.62160,0.68187
2553.69283,0.68129
2551.76406,0.68071
2549.83529,0.68011
2547.90652,0.67950
2545.97775,0.67891
2544.04897,0.67835
2542.12020,0.67777
2540.19143,0.67720
2538.26266,0.67662
2536.33389,0.67604
2534.40512,0.67547
2532.47635,0.67489
2530.54758,0.67430
2528.61881,0.67371
2526.69003,0.67314
2524.76126,0.67255
2522.83249,0.67195
2520.90372,0.67136
2518.97495,0.67080
2517.04618,0.67024
2515.11741,0.66967
2513.18864,0.66909
2511.25987,0.66850
2509.33110,0.66792
2507.40232,0.66732
2505.47355,0.66672
2503.54478,0.66614
2501.61601,0.66557
2499.68724,0.66501
2497.75847,0.66444
2495.82970,0.66385
2493.90093,0.66328
2491.97216,0.66271
2490.04339,0.66214
2488.11461,0.66156
2486.18584,0.66098
2484.25707,0.66040
2482.32830,0.65982
2480.39953,0.65925
2478.47076,0.65868
2476.54199,0.65809
2474.61322,0.65750
2472.68445,0.65693
2470.75568,0.65636
2468.82690,0.65580
2466.89813,0.65523
2464.96936,0.65467
2463.04059,0.65411
2461.11182,0.65353
2459.18305,0.65294
2457.25428,0.65237
2455.32551,0.65182
2453.39674,0.65128
2451.46797,0.65071
2449.53919,0.65014
2447.61042,0.64958
2445.68165,0.64901
2443.75288,0.64844
2441.82411,0.64786
2439.89534,0.64728
2437.96657,0.64671
2436.03780,0.64615
2434.10903,0.64560
2432.18025,0.64504
2430.25148,0.64449
2428.32271,0.64393
2426.39394,0.64338
2424.46517,0.64282
2422.53640,0.64224
2420.60763,0.64167
2418.67886,0.64110
2416.75009,0.64055
2414.82132,0.63998
2412.89254,0.63941
2410.96377,0.63885
2409.03500,0.63829
2407.10623,0.63773
2405.17746,0.63717
2403.24869,0.63662
2401.31992,0.63606
2399.39115,0.63549
2397.46238,0.63493
2395.53361,0.63435
2393.60483,0.63378
2391.67606,0.63319
2389.74729,0.63257
2387.81852,0.63185
2385.88975,0.63100
2383.96098,0.63000
2382.03221,0.62883
2380.10344,0.62758
2378.17467,0.62633
2376.24590,0.62508
2374.31712,0.62377
2372.38835,0.62241
2370.45958,0.62109
2368.53081,0.61988
2366.60204,0.61883
2364.67327,0.61801
2362.74450,0.61747
2360.81573,0.61723
2358.88696,0.61731
2356.95819,0.61776
2355.02941,0.61850
2353.10064,0.61927
2351.17187,0.61927
2349.24310,0.61790
2347.31433,0.61581
2345.38556,0.61427
2343.45679,0.61387
2341.52802,0.61378
2339.59925,0.61352
2337.67048,0.61315
2335.74170,0.61269
2333.81293,0.61215
2331.88416,0.61170
2329.95539,0.61148
2328.02662,0.61125
2326.09785,0.61087
2324.16908,0.61053
2322.24031,0.61043
2320.31154,0.61044
2318.38276,0.61031
2316.45399,0.60993
2314.52522,0.60943
2312.59645,0.60901
2310.66768,0.60867
2308.73891,0.60836
2306.81014,0.60800
2304.88137,0.60760
2302.95260,0.60714
2301.02383,0.60668
2299.09505,0.60624
2297.16628,0.60579
2295.23751,0.60533
2293.30874,0.60485
2291.37997,0.60437
2289.45120,0.60390
2287.52243,0.60344
2285.59366,0.60297
2283.66489,0.60243
2281.73612,0.60185
2279.80734,0.60128
2277.87857,0.60073
2275.94980,0.60020
2274.02103,0.59967
2272.09226,0.59914
2270.16349,0.59861
2268.23472,0.59809
2266.30595,0.59757
2264.37718,0.59704
2262.44841,0.59651
2260.51963,0.59600
2258.59086,0.59550
2256.66209,0.59500
2254.73332,0.59449
2252.80455,0.59397
2250.87578,0.59345
2248.94701,0.59293
2247.01824,0.59239
2245.08947,0.59186
2243.16070,0.59133
2241.23192,0.59082
2239.30315,0.59031
2237.37438,0.58980
2235.44561,0.58929
2233.51684,0.58877
2231.58807,0.58826
2229.65930,0.58774
2227.73053,0.58723
2225.80176,0.58670
2223.87298,0.58617
2221.94421,0.58566
2220.01544,0.58514
2218.08667,0.58462
2216.15790,0.58411
2214.22913,0.58361
2212.30036,0.58310
2210.37159,0.58261
2208.44282,0.58212
2206.51405,0.58162
2204.58527,0.58111
2202.65650,0.58061
2200.72773,0.58011
2198.79896,0.57961
2196.87019,0.57911
2194.94142,0.57861
2193.01265,0.57812
2191.08388,0.57765
2189.15511,0.57718
2187.22634,0.57671
2185.29756,0.57623
2183.36879,0.57575
2181.44002,0.57527
2179.51125,0.57479
2177.58248,0.57430
2175.65371,0.57381
2173.72494,0.57334
2171.79617,0.57288
2169.86740,0.57243
2167.93863,0.57196
2166.00985,0.57149
2164.08108,0.57103
2162.15231,0.57059
2160.22354,0.57014
2158.29477,0.56967
2156.36600,0.56920
2154.43723,0.56873
2152.50846,0.56828
2150.57969,0.56783
2148.65092,0.56737
2146.72214,0.56691
2144.79337,0.56645
2142.86460,0.56600
2140.93583,0.56555
2139.00706,0.56508
2137.07829,0.56461
2135.14952,0.56414
2133.22075,0.56366
2131.29198,0.56320
2129.36320,0.56274
2127.43443,0.56229
2125.50566,0.56183
2123.57689,0.56136
2121.64812,0.56090
2119.71935,0.56044
2117.79058,0.55997
2115.86181,0.55951
2113.93304,0.55905
2112.00427,0.55859
2110.07549,0.55813
2108.14672,0.55769
2106.21795,0.55725
2104.28918,0.55683
2102.36041,0.55641
2100.43164,0.55598
2098.50287,0.55553
2096.57410,0.55508
2094.64533,0.55463
2092.71656,0.55419
2090.78778,0.55376
2088.85901,0.55334
2086.93024,0.55295
2085.00147,0.55255
2083.07270,0.55214
2081.14393,0.55173
2079.21516,0.55130
2077.28639,0.55086
2075.35762,0.55042
2073.42885,0.54997
2071.50007,0.54951
2069.57130,0.54904
2067.64253,0.54858
2065.71376,0.54814
2063.78499,0.54770
2061.85622,0.54724
2059.92745,0.54677
2057.99868,0.54631
2056.06991,0.54584
2054.14114,0.54538
2052.21236,0.54494
2050.28359,0.54450
2048.35482,0.54404
2046.42605,0.54359
2044.49728,0.54315
2042.56851,0.54273
2040.63974,0.54233
2038.71097,0.54191
2036.78220,0.54148
2034.85343,0.54105
2032.92465,0.54063
2030.99588,0.54021
2029.06711,0.53978
2027.13834,0.53936
2025.20957,0.53893
2023.28080,0.53851
2021.35203,0.53807
2019.42326,0.53762
2017.49449,0.53721
2015.56571,0.53680
2013.63694,0.53632
2011.70817,0.53581
2009.77940,0.53531
2007.85063,0.53482
2005.92186,0.53432
2003.99309,0.53383
2002.06432,0.53333
2000.13555,0.53284
1998.20678,0.53235
1996.27800,0.53185
1994.34923,0.53134
1992.42046,0.53093
1990.49169,0.53053
1988.56292,0.53004
1986.63415,0.52952
1984.70538,0.52901
1982.77661,0.52853
1980.84784,0.52805
1978.91907,0.52759
1976.99029,0.52714
1975.06152,0.52669
1973.13275,0.52623
1971.20398,0.52576
1969.27521,0.52530
1967.34644,0.52491
1965.41767,0.52450
1963.48890,0.52399
1961.56013,0.52348
1959.63136,0.52302
1957.70258,0.52258
1955.77381,0.52214
1953.84504,0.52170
1951.91627,0.52126
1949.98750,0.52082
1948.05873,0.52036
1946.12996,0.51989
1944.20119,0.51946
1942.27242,0.51914
1940.34365,0.51874
1938.41487,0.51818
1936.48610,0.51762
1934.55733,0.51712
1932.62856,0.51664
1930.69979,0.51613
1928.77102,0.51561
1926.84225,0.51507
1924.91348,0.51457
1922.98471,0.51414
1921.05593,0.51364
1919.12716,0.51315
1917.19839,0.51280
1915.26962,0.51234
1913.34085,0.51174
1911.41208,0.51121
1909.48331,0.51081
1907.55454,0.51041
1905.62577,0.50994
1903.69700,0.50945
1901.76822,0.50897
1899.83945,0.50849
1897.91068,0.50801
1895.98191,0.50758
1894.05314,0.50713
1892.12437,0.50662
1890.19560,0.50621
1888.26683,0.50586
1886.33806,0.50536
1884.40929,0.50481
1882.48051,0.50433
1880.55174,0.50387
1878.62297,0.50341
1876.69420,0.50296
1874.76543,0.50248
1872.83666,0.50194
1870.90789,0.50149
1868.97912,0.50137
1867.05035,0.50126
1865.12158,0.50077
1863.19280,0.50016
1861.26403,0.49968
1859.33526,0.49929
1857.40649,0.49891
1855.47772,0.49851
1853.54895,0.49811
1851.62018,0.49773
1849.69141,0.49735
1847.76264,0.49694
1845.83387,0.49668
1843.90509,0.49674
1841.97632,0.49658
1840.04755,0.49601
1838.11878,0.49551
1836.19001,0.49517
1834.26124,0.49475
1832.33247,0.49431
1830.40370,0.49414
1828.47493,0.49402
1826.54615,0.49365
1824.61738,0.49330
1822.68861,0.49294
1820.75984,0.49243
1818.83107,0.49199
1816.90230,0.49165
1814.97353,0.49129
1813.04476,0.49092
1811.11599,0.49070
1809.18722,0.49052
1807.25844,0.49021
1805.32967,0.48983
1803.40090,0.48956
1801.47213,0.48951
1799.54336,0.48956
1797.61459,0.48941
1795.68582,0.48909
1793.75705,0.48903
1791.82828,0.48944
1789.89951,0.48963
1787.97073,0.48936
1786.04196,0.48923
1784.11319,0.48937
1782.18442,0.48952
1780.25565,0.48968
1778.32688,0.48971
1776.39811,0.48950
1774.46934,0.48936
1772.54057,0.48965
1770.61180,0.48987
1768.68302,0.48956
1766.75425,0.48905
1764.82548,0.48846
1762.89671,0.48804
1760.96794,0.48786
1759.03917,0.48750
1757.11040,0.48705
1755.18163,0.48656
1753.25286,0.48597
1751.32409,0.48573
1749.39531,0.48581
1747.46654,0.48560
1745.53777,0.48512
1743.60900,0.48466
1741.68023,0.48439
1739.75146,0.48429
1737.82269,0.48394
1735.89392,0.48352
1733.96515,0.48393
1732.03638,0.48438
1730.10760,0.48408
1728.17883,0.48373
1726.25006,0.48354
1724.32129,0.48353
1722.39252,0.48352
1720.46375,0.48341
1718.53498,0.48382
1716.60621,0.48487
1714.67744,0.48528
1712.74866,0.48496
1710.81989,0.48453
1708.89112,0.48418
1706.96235,0.48410
1705.03358,0.48409
1703.10481,0.48373
1701.17604,0.48366
1699.24727,0.48421
1697.31850,0.48432
1695.38973,0.48425
1693.46095,0.48401
1691.53218,0.48357
1689.60341,0.48343
1687.67464,0.48337
1685.74587,0.48368
1683.81710,0.48514
1681.88833,0.48608
1679.95956,0.48604
1678.03079,0.48608
1676.10202,0.48685
1674.17324,0.48813
1672.24447,0.48909
1670.31570,0.49039
1668.38693,0.49216
1666.45816,0.49324
1664.52939,0.49425
1662.60062,0.49625
1660.67185,0.49850
1658.74308,0.50001
1656.81431,0.50094
1654.88553,0.50249
1652.95676,0.50670
1651.02799,0.50986
1649.09922,0.51094
1647.17045,0.51315
1645.24168,0.51606
1643.31291,0.51763
1641.38414,0.51866
1639.45537,0.51969
1637.52660,0.52097
1635.59782,0.52308
1633.66905,0.52453
1631.74028,0.52452
1629.81151,0.52414
1627.88274,0.52376
1625.95397,0.52313
1624.02520,0.52229
1622.09643,0.52128
1620.16766,0.51999
1618.23888,0.51852
1616.31011,0.51675
1614.38134,0.51447
1612.45257,0.51198
1610.52380,0.50962
1608.59503,0.50744
1606.66626,0.50534
1604.73749,0.50327
1602.80872,0.50125
1600.87995,0.49926
1598.95117,0.49731
1597.02240,0.49544
1595.09363,0.49363
1593.16486,0.49185
1591.23609,0.49009
1589.30732,0.48836
1587.37855,0.48670
1585.44978,0.48511
1583.52101,0.48360
1581.59224,0.48212
1579.66346,0.48065
1577.73469,0.47939
1575.80592,0.47837
1573.87715,0.47711
1571.94838,0.47571
1570.01961,0.47461
1568.09084,0.47364
1566.16207,0.47248
1564.23330,0.47123
1562.30453,0.47002
1560.37575,0.46926
1558.44698,0.46932
1556.51821,0.46865
1554.58944,0.46736
1552.66067,0.46622
1550.73190,0.46530
1548.80313,0.46443
1546.87436,0.46359
1544.94559,0.46294
1543.01682,0.46259
1541.08804,0.46261
1539.15927,0.46260
1537.23050,0.46178
1535.30173,0.46087
1533.37296,0.46051
1531.44419,0.46024
1529.51542,0.45974
1527.58665,0.45942
1525.65788,0.45932
1523.72910,0.45925
1521.80033,0.45943
1519.87156,0.45961
1517.94279,0.45949
1516.01402,0.45934
1514.08525,0.45907
1512.15648,0.45871
1510.22771,0.45849
1508.29894,0.45876
1506.37017,0.45963
1504.44139,0.45964
1502.51262,0.45899
1500.58385,0.45863
1498.65508,0.45881
1496.72631,0.45930
1494.79754,0.45953
1492.86877,0.45947
1490.94000,0.45975
1489.01123,0.46052
1487.08246,0.46105
1485.15368,0.46125
1483.22491,0.46154
1481.29614,0.46209
1479.36737,0.46276
1477.43860,0.46353
1475.50983,0.46462
1473.58106,0.46627
1471.65229,0.46810
1469.72352,0.46910
1467.79475,0.46962
1465.86597,0.47048
1463.93720,0.47151
1462.00843,0.47194
1460.07966,0.47200
1458.15089,0.47258
1456.22212,0.47354
1454.29335,0.47357
1452.36458,0.47310
1450.43581,0.47276
1448.50704,0.47260
1446.57826,0.47242
1444.64949,0.47213
1442.72072,0.47189
1440.79195,0.47179
1438.86318,0.47190
1436.93441,0.47249
1435.00564,0.47301
1433.07687,0.47299
1431.14810,0.47302
1429.21933,0.47334
1427.29055,0.47363
1425.36178,0.47390
1423.43301,0.47422
1421.50424,0.47449
1419.57547,0.47500
1417.64670,0.47557
1415.71793,0.47564
1413.78916,0.47555
1411.86039,0.47564
1409.93161,0.47582
1408.00284,0.47603
1406.07407,0.47635
1404.14530,0.47675
1402.21653,0.47700
1400.28776,0.47725
1398.35899,0.47763
1396.43022,0.47802
1394.50145,0.47846
1392.57268,0.47890
1390.64390,0.47937
1388.71513,0.48042
1386.78636,0.48227
1384.85759,0.48406
1382.92882,0.48531
1381.00005,0.48632
1379.07128,0.48720
1377.14251,0.48760
1375.21374,0.48726
1373.28497,0.48634
1371.35619,0.48541
1369.42742,0.48489
1367.49865,0.48477
1365.56988,0.48481
1363.64111,0.48501
1361.71234,0.48532
1359.78357,0.48546
1357.85480,0.48544
1355.92603,0.48542
1353.99726,0.48547
1352.06848,0.48557
1350.13971,0.48576
1348.21094,0.48602
1346.28217,0.48633
1344.35340,0.48665
1342.42463,0.48703
1340.49586,0.48756
1338.56709,0.48818
1336.63832,0.48874
1334.70955,0.48927
1332.78077,0.48990
1330.85200,0.49064
1328.92323,0.49144
1326.99446,0.49226
1325.06569,0.49313
1323.13692,0.49404
1321.20815,0.49501
1319.27938,0.49605
1317.35061,0.49711
1315.42183,0.49812
1313.49306,0.49914
1311.56429,0.50018
1309.63552,0.50123
1307.70675,0.50233
1305.77798,0.50348
1303.84921,0.50462
1301.92044,0.50577
1299.99167,0.50694
1298.06290,0.50815
1296.13412,0.50939
1294.20535,0.51064
1292.27658,0.51193
1290.34781,0.51326
1288.41904,0.51465
1286.49027,0.51609
1284.56150,0.51754
1282.63273,0.51901
1280.70396,0.52052
1278.77519,0.52209
1276.84641,0.52370
1274.91764,0.52534
1272.98887,0.52704
1271.06010,0.52883
1269.13133,0.53068
1267.20256,0.53260
1265.27379,0.53458
1263.34502,0.53661
1261.41625,0.53870
1259.48748,0.54086
1257.55870,0.54309
1255.62993,0.54536
1253.70116,0.54770
1251.77239,0.55013
1249.84362,0.55267
1247.91485,0.55532
1245.98608,0.55808
1244.05731,0.56094
1242.12854,0.56389
1240.19977,0.56693
1238.27099,0.57007
1236.34222,0.57332
1234.41345,0.57665
1232.48468,0.58004
1230.55591,0.58351
1228.62714,0.58708
1226.69837,0.59074
1224.76960,0.59450
1222.84083,0.59842
1220.91206,0.60248
1218.98328,0.60666
1217.05451,0.61094
1215.12574,0.61533
1213.19697,0.61987
1211.26820,0.62454
1209.33943,0.62927
1207.41066,0.63404
1205.48189,0.63881
1203.55312,0.64360
1201.62434,0.64841
1199.69557,0.65328
1197.76680,0.65819
1195.83803,0.66317
1193.90926,0.66822
1191.98049,0.67337
1190.05172,0.67859
1188.12295,0.68386
1186.19418,0.68914
1184.26541,0.69436
1182.33663,0.69957
1180.40786,0.70484
1178.47909,0.71014
1176.55032,0.71547
1174.62155,0.72085
1172.69278,0.72626
1170.76401,0.73165
1168.83524,0.73693
1166.90647,0.74195
1164.97770,0.74666
1163.04892,0.75115
1161.12015,0.75555
1159.19138,0.76015
1157.26261,0.76523
1155.33384,0.77091
1153.40507,0.77712
1151.47630,0.78373
1149.54753,0.79068
1147.61876,0.79800
1145.68999,0.80550
1143.76121,0.81286
1141.83244,0.81982
1139.90367,0.82658
1137.97490,0.83382
1136.04613,0.84226
1134.11736,0.85216
1132.18859,0.86344
1130.25982,0.87572
1128.33105,0.88825
1126.40228,0.89995
1124.47350,0.90977
1122.54473,0.91703
1120.61596,0.92206
1118.68719,0.92613
1116.75842,0.93088
1114.82965,0.93746
1112.90088,0.94621
1110.97211,0.95693
1109.04334,0.96932
1107.11456,0.98320
1105.18579,0.99845
1103.25702,1.01487
1101.32825,1.03204
1099.39948,1.04942
1097.47071,1.06656
1095.54194,1.08314
1093.61317,1.09897
1091.68440,1.11368
1089.75563,1.12703
1087.82685,1.13904
1085.89808,1.14989
1083.96931,1.15964
1082.04054,1.16815
1080.11177,1.17539
1078.18300,1.18150
1076.25423,1.18679
1074.32546,1.19125
1072.39669,1.19479
1070.46792,1.19758
1068.53914,1.19963
1066.61037,1.20092
1064.68160,1.20140
1062.75283,1.20105
1060.82406,1.19969
1058.89529,1.19711
1056.96652,1.19315
1055.03775,1.18766
1053.10898,1.18080
1051.18021,1.17276
1049.25143,1.16381
1047.32266,1.15427
1045.39389,1.14472
1043.46512,1.13622
1041.53635,1.12979
1039.60758,1.12603
1037.67881,1.12496
1035.75004,1.12637
1033.82127,1.12989
1031.89250,1.13509
1029.96372,1.14154
1028.03495,1.14873
1026.10618,1.15648
1024.17741,1.16502
1022.24864,1.17491
1020.31987,1.18646
1018.39110,1.19930
1016.46233,1.21275
1014.53356,1.22628
1012.60478,1.23967
1010.67601,1.25266
1008.74724,1.26491
1006.81847,1.27566
1004.88970,1.28397
1002.96093,1.28936
1001.03216,1.29183
999.10339,1.29167
997.17462,1.28934
995.24585,1.28603
993.31707,1.28352
991.38830,1.28352
989.45953,1.28697
987.53076,1.29380
985.60199,1.30324
983.67322,1.31412
981.74445,1.32549
979.81568,1.33646
977.88691,1.34555
975.95814,1.35075
974.02936,1.35016
972.10059,1.34305
970.17182,1.33062
968.24305,1.31543
966.31428,1.29985
964.38551,1.28575
962.45674,1.27520
960.52797,1.27083
958.59920,1.27616
956.67043,1.29375
954.74165,1.32076
952.81288,1.34764
950.88411,1.36473
948.95534,1.36985
947.02657,1.36692
945.09780,1.36085
943.16903,1.35477
941.24026,1.35017
939.31149,1.34758
937.38272,1.34705
935.45394,1.34850
933.52517,1.35174
931.59640,1.35644
929.66763,1.36199
927.73886,1.36764
925.81009,1.37246
923.88132,1.37520
921.95255,1.37464
920.02378,1.37034
918.09501,1.36296
916.16623,1.35417
914.23746,1.34586
912.30869,1.33962
910.37992,1.33666
908.45115,1.33788
906.52238,1.34373
904.59361,1.35430
902.66484,1.36903
900.73607,1.38661
898.80729,1.40600
896.87852,1.42608
894.94975,1.44543
893.02098,1.46308
891.09221,1.47811
889.16344,1.48896
887.23467,1.49373
885.30590,1.49115
883.37713,1.48077
881.44836,1.46288
879.51958,1.43857
877.59081,1.40951
875.66204,1.37725
873.73327,1.34290
871.80450,1.30787
869.87573,1.27319
867.94696,1.23915
866.01819,1.20558
864.08942,1.17235
862.16065,1.13964
860.23187,1.10775
858.30310,1.07681
856.37433,1.04650
854.44556,1.01640
852.51679,0.98630
850.58802,0.95668
848.65925,0.92930
846.73048,0.90711
844.80171,0.89322
842.87294,0.88817
840.94416,0.88808
839.01539,0.88569
837.08662,0.87483
835.15785,0.85457
833.22908,0.82847
831.30031,0.80070
829.37154,0.77363
827.44277,0.74806
825.51400,0.72408
823.58523,0.70155
821.65645,0.68045
819.72768,0.66081
817.79891,0.64271
815.87014,0.62622
813.94137,0.61128
812.01260,0.59780
810.08383,0.58566
808.15506,0.57473
806.22629,0.56486
804.29751,0.55578
802.36874,0.54712
800.43997,0.53846
798.51120,0.52946
796.58243,0.51999
794.65366,0.51021
792.72489,0.50048
790.79612,0.49120
788.86735,0.48264
786.93858,0.47486
785.00980,0.46767
783.08103,0.46065
781.15226,0.45341
779.22349,0.44576
777.29472,0.43777
775.36595,0.42958
773.43718,0.42138
771.50841,0.41351
769.57964,0.40630
767.65087,0.39991
765.72209,0.39420
763.79332,0.38901
761.86455,0.38426
759.93578,0.37990
758.00701,0.37602
756.07824,0.37276
754.14947,0.37029
752.22070,0.36886
750.29193,0.36877
748.36316,0.37014
746.43438,0.37249
744.50561,0.37439
742.57684,0.37436
740.64807,0.37266
738.71930,0.37124
736.79053,0.37188
734.86176,0.37508
732.93299,0.38052
731.00422,0.38752
729.07545,0.39464
727.14667,0.39940
725.21790,0.39947
723.28913,0.39454
721.36036,0.38624
719.43159,0.37688
717.50282,0.36840
715.57405,0.36139
713.64528,0.35578
711.71651,0.35159
709.78773,0.34879
707.85896,0.34726
705.93019,0.34694
704.00142,0.34781
702.07265,0.34992
700.14388,0.35340
698.21511,0.35840
696.28634,0.36485
694.35757,0.37233
692.42880,0.37993
690.50002,0.38619
688.57125,0.38964
686.64248,0.38963
684.71371,0.38682
682.78494,0.38279
680.85617,0.37905
678.92740,0.37636
676.99863,0.37428
675.06986,0.37191
673.14109,0.36906
671.21231,0.36638
669.28354,0.36498
667.35477,0.36701
665.42600,0.37107
663.49723,0.37619
661.56846,0.38381
659.63969,0.39421
657.71092,0.40695
655.78215,0.42150
653.85338,0.43683
651.92460,0.45195
649.99583,0.46674
648.06706,0.48144
646.13829,0.49522
644.20952,0.50666
642.28075,0.51444
640.35198,0.51801
638.42321,0.51786
636.49444,0.51558
634.56567,0.51296
632.63689,0.51146
630.70812,0.51196
628.77935,0.51470
626.85058,0.51984
624.92181,0.52740
622.99304,0.53728
621.06427,0.54902
619.13550,0.56230
617.20673,0.57700
615.27796,0.59220
613.34918,0.60687
611.42041,0.62060
609.49164,0.63340
607.56287,0.64502
605.63410,0.65508
603.70533,0.66324
601.77656,0.66911
599.84779,0.67240
597.91902,0.67279
595.99024,0.67052
594.06147,0.66579
592.13270,0.65888
590.20393,0.65072
588.27516,0.64296
586.34639,0.63710
584.41762,0.63393
582.48885,0.63428
580.56008,0.63837
578.63131,0.64588
576.70253,0.65668
574.77376,0.67074
572.84499,0.68730
570.91622,0.70553
568.98745,0.72519
567.05868,0.74560
565.12991,0.76590
563.20114,0.78524
561.27237,0.80363
559.34360,0.82251
557.41482,0.84346
555.48605,0.86734
553.55728,0.89373
551.62851,0.92214
549.69974,0.95163
547.77097,0.98089
545.84220,1.00852
543.91343,1.03215
541.98466,1.05044
540.05589,1.06346
538.12711,1.07183
536.19834,1.07586
534.26957,1.07663
532.34080,1.07711
530.41203,1.08161
528.48326,1.09449
526.55449,1.11749
524.62572,1.14769
522.69695,1.17765
520.76818,1.20284
518.83940,1.22253
516.91063,1.23655
514.98186,1.24601
513.05309,1.25175
511.12432,1.25485
509.19555,1.25673
507.26678,1.25896
505.33801,1.26193
503.40924,1.26391
501.48046,1.26175
499.55169,1.25144
497.62292,1.23048
495.69415,1.19912
493.76538,1.16074
491.83661,1.11836
489.90784,1.07501
487.97907,1.03359
486.05030,0.99542
484.12153,0.96283
482.19275,0.93779
480.26398,0.91996
478.33521,0.90755
476.40644,0.89869
474.47767,0.89221
472.54890,0.88820
470.62013,0.88701
468.69136,0.88707
466.76259,0.88656
464.83382,0.88549
462.90504,0.88498
460.97627,0.88589
459.04750,0.88805
457.11873,0.88991
455.18996,0.89019
453.26119,0.89002
451.33242,0.89044
449.40365,0.89208
447.47488,0.89549
445.54611,0.90037
443.61733,0.90627
441.68856,0.91309
439.75979,0.92098
437.83102,0.93167
435.90225,0.94677
433.97348,0.96478
432.04471,0.98459
430.11594,1.00654
428.18717,1.02790
426.25840,1.04530
424.32962,1.05897
422.40085,1.07062
420.47208,1.08318
418.54331,1.10134
416.61454,1.12017
414.68577,1.13306
412.75700,1.13982
410.82823,1.13844
408.89946,1.12748
406.97069,1.10670
405.04191,1.08014
403.11314,1.05352
401.18437,1.02712
399.25560,0.99779
397.32683,0.97048
395.39806,0.95397
393.46929,0.94195
391.54052,0.92644
389.61175,0.90681
387.68297,0.88497
385.75420,0.86044
383.82543,0.83349
381.89666,0.80966
379.96789,0.79384
378.03912,0.78723
376.11035,0.78871
374.18158,0.79719
372.25281,0.81138
370.32404,0.83081
368.39526,0.85628
366.46649,0.88184
364.53772,0.89620
362.60895,0.89049
360.68018,0.87282
358.75141,0.85354
356.82264,0.83429
354.89387,0.80049
352.96510,0.73938
351.03633,0.73756
349.10755,0.87730
