# 21 JAN 2015 - B.L. de Vries
# Pultusk, H5, Sample 1, Take 2
# m = 2,4 mgr, KBr = 315 mgr
# Signal = 6600
# Resolution / sample scan time / bg scan time / range = 4 / 64 / 64 / 4000-300
# Source: glow-bar, Machine: Equinox 55, DTGS
# k(cm-1), absorbance
3996.41355,0.72972
3994.48478,0.72944
3992.55601,0.72913
3990.62724,0.72884
3988.69847,0.72856
3986.76970,0.72823
3984.84093,0.72789
3982.91215,0.72759
3980.98338,0.72728
3979.05461,0.72688
3977.12584,0.72646
3975.19707,0.72619
3973.26830,0.72600
3971.33953,0.72572
3969.41076,0.72542
3967.48199,0.72509
3965.55322,0.72468
3963.62444,0.72432
3961.69567,0.72413
3959.76690,0.72390
3957.83813,0.72355
3955.90936,0.72318
3953.98059,0.72273
3952.05182,0.72224
3950.12305,0.72206
3948.19428,0.72213
3946.26550,0.72181
3944.33673,0.72130
3942.40796,0.72132
3940.47919,0.72122
3938.55042,0.72054
3936.62165,0.71970
3934.69288,0.71904
3932.76411,0.71912
3930.83534,0.71956
3928.90657,0.71917
3926.97779,0.71830
3925.04902,0.71807
3923.12025,0.71799
3921.19148,0.71731
3919.26271,0.71690
3917.33394,0.71737
3915.40517,0.71762
3913.47640,0.71687
3911.54763,0.71589
3909.61886,0.71493
3907.69008,0.71361
3905.76131,0.71293
3903.83254,0.71388
3901.90377,0.71523
3899.97500,0.71603
3898.04623,0.71595
3896.11746,0.71420
3894.18869,0.71203
3892.25992,0.71202
3890.33115,0.71291
3888.40237,0.71177
3886.47360,0.71110
3884.54483,0.71205
3882.61606,0.71167
3880.68729,0.71142
3878.75852,0.71156
3876.82975,0.71005
3874.90098,0.70872
3872.97221,0.70822
3871.04344,0.70858
3869.11466,0.70996
3867.18589,0.70955
3865.25712,0.70849
3863.32835,0.70894
3861.39958,0.70889
3859.47081,0.70696
3857.54204,0.70348
3855.61327,0.70146
3853.68450,0.70623
3851.75572,0.71166
3849.82695,0.71004
3847.89818,0.70624
3845.96941,0.70385
3844.04064,0.70310
3842.11187,0.70275
3840.18310,0.70243
3838.25433,0.70371
3836.32556,0.70528
3834.39679,0.70473
3832.46801,0.70363
3830.53924,0.70297
3828.61047,0.70204
3826.68170,0.70112
3824.75293,0.69965
3822.82416,0.69882
3820.89539,0.70072
3818.96662,0.70127
3817.03785,0.70046
3815.10908,0.70156
3813.18030,0.70121
3811.25153,0.69843
3809.32276,0.69636
3807.39399,0.69707
3805.46522,0.69775
3803.53645,0.69651
3801.60768,0.69739
3799.67891,0.69897
3797.75014,0.69800
3795.82137,0.69717
3793.89259,0.69666
3791.96382,0.69553
3790.03505,0.69465
3788.10628,0.69411
3786.17751,0.69387
3784.24874,0.69376
3782.31997,0.69316
3780.39120,0.69301
3778.46243,0.69370
3776.53366,0.69348
3774.60488,0.69207
3772.67611,0.69076
3770.74734,0.69085
3768.81857,0.69177
3766.88980,0.69189
3764.96103,0.69147
3763.03226,0.69043
3761.10349,0.68938
3759.17472,0.68979
3757.24594,0.68987
3755.31717,0.68788
3753.38840,0.68609
3751.45963,0.68780
3749.53086,0.69049
3747.60209,0.68892
3745.67332,0.68756
3743.74455,0.69053
3741.81578,0.69079
3739.88701,0.68688
3737.95823,0.68438
3736.02946,0.68547
3734.10069,0.68767
3732.17192,0.68836
3730.24315,0.68710
3728.31438,0.68519
3726.38561,0.68456
3724.45684,0.68502
3722.52807,0.68526
3720.59930,0.68531
3718.67052,0.68489
3716.74175,0.68344
3714.81298,0.68142
3712.88421,0.68117
3710.95544,0.68360
3709.02667,0.68505
3707.09790,0.68397
3705.16913,0.68208
3703.24036,0.68142
3701.31159,0.68242
3699.38281,0.68288
3697.45404,0.68223
3695.52527,0.68133
3693.59650,0.68037
3691.66773,0.68013
3689.73896,0.68232
3687.81019,0.68534
3685.88142,0.68545
3683.95265,0.68357
3682.02388,0.68220
3680.09510,0.68124
3678.16633,0.68036
3676.23756,0.68225
3674.30879,0.68508
3672.38002,0.68428
3670.45125,0.68413
3668.52248,0.68594
3666.59371,0.68547
3664.66494,0.68383
3662.73617,0.68318
3660.80739,0.68287
3658.87862,0.68249
3656.94985,0.68350
3655.02108,0.68474
3653.09231,0.68371
3651.16354,0.68348
3649.23477,0.68725
3647.30600,0.69081
3645.37723,0.69065
3643.44845,0.68917
3641.51968,0.68868
3639.59091,0.68914
3637.66214,0.68971
3635.73337,0.69035
3633.80460,0.69074
3631.87583,0.69051
3629.94706,0.69256
3628.01829,0.69771
3626.08952,0.69963
3624.16074,0.69832
3622.23197,0.69766
3620.30320,0.69934
3618.37443,0.70247
3616.44566,0.70417
3614.51689,0.70476
3612.58812,0.70584
3610.65935,0.70723
3608.73058,0.70932
3606.80181,0.71158
3604.87303,0.71253
3602.94426,0.71309
3601.01549,0.71456
3599.08672,0.71633
3597.15795,0.71783
3595.22918,0.71969
3593.30041,0.72151
3591.37164,0.72228
3589.44287,0.72339
3587.51410,0.72652
3585.58532,0.72940
3583.65655,0.73025
3581.72778,0.73069
3579.79901,0.73182
3577.87024,0.73328
3575.94147,0.73473
3574.01270,0.73604
3572.08393,0.73685
3570.15516,0.73749
3568.22639,0.73951
3566.29761,0.74266
3564.36884,0.74443
3562.44007,0.74486
3560.51130,0.74553
3558.58253,0.74657
3556.65376,0.74751
3554.72499,0.74846
3552.79622,0.74978
3550.86745,0.75108
3548.93867,0.75200
3547.00990,0.75327
3545.08113,0.75501
3543.15236,0.75634
3541.22359,0.75711
3539.29482,0.75787
3537.36605,0.75896
3535.43728,0.76021
3533.50851,0.76123
3531.57974,0.76210
3529.65096,0.76319
3527.72219,0.76449
3525.79342,0.76575
3523.86465,0.76699
3521.93588,0.76818
3520.00711,0.76915
3518.07834,0.77005
3516.14957,0.77102
3514.22080,0.77198
3512.29203,0.77297
3510.36325,0.77415
3508.43448,0.77534
3506.50571,0.77624
3504.57694,0.77722
3502.64817,0.77855
3500.71940,0.77966
3498.79063,0.78042
3496.86186,0.78126
3494.93309,0.78226
3493.00432,0.78319
3491.07554,0.78405
3489.14677,0.78501
3487.21800,0.78605
3485.28923,0.78697
3483.36046,0.78784
3481.43169,0.78886
3479.50292,0.78980
3477.57415,0.79054
3475.64538,0.79133
3473.71661,0.79223
3471.78783,0.79308
3469.85906,0.79387
3467.93029,0.79465
3466.00152,0.79543
3464.07275,0.79620
3462.14398,0.79698
3460.21521,0.79771
3458.28644,0.79834
3456.35767,0.79892
3454.42889,0.79947
3452.50012,0.79994
3450.57135,0.80031
3448.64258,0.80074
3446.71381,0.80130
3444.78504,0.80170
3442.85627,0.80185
3440.92750,0.80192
3438.99873,0.80190
3437.06996,0.80180
3435.14118,0.80163
3433.21241,0.80137
3431.28364,0.80105
3429.35487,0.80062
3427.42610,0.80008
3425.49733,0.79946
3423.56856,0.79878
3421.63979,0.79814
3419.71102,0.79746
3417.78225,0.79656
3415.85347,0.79549
3413.92470,0.79443
3411.99593,0.79335
3410.06716,0.79224
3408.13839,0.79114
3406.20962,0.79003
3404.28085,0.78889
3402.35208,0.78771
3400.42331,0.78647
3398.49454,0.78519
3396.56576,0.78390
3394.63699,0.78255
3392.70822,0.78120
3390.77945,0.77982
3388.85068,0.77833
3386.92191,0.77675
3384.99314,0.77512
3383.06437,0.77342
3381.13560,0.77160
3379.20683,0.76968
3377.27805,0.76769
3375.34928,0.76560
3373.42051,0.76343
3371.49174,0.76119
3369.56297,0.75890
3367.63420,0.75657
3365.70543,0.75426
3363.77666,0.75195
3361.84789,0.74964
3359.91912,0.74734
3357.99034,0.74505
3356.06157,0.74279
3354.13280,0.74056
3352.20403,0.73836
3350.27526,0.73619
3348.34649,0.73407
3346.41772,0.73200
3344.48895,0.72999
3342.56018,0.72801
3340.63140,0.72603
3338.70263,0.72407
3336.77386,0.72219
3334.84509,0.72036
3332.91632,0.71853
3330.98755,0.71670
3329.05878,0.71492
3327.13001,0.71323
3325.20124,0.71160
3323.27247,0.71001
3321.34369,0.70839
3319.41492,0.70679
3317.48615,0.70528
3315.55738,0.70386
3313.62861,0.70246
3311.69984,0.70105
3309.77107,0.69968
3307.84230,0.69836
3305.91353,0.69706
3303.98476,0.69579
3302.05598,0.69457
3300.12721,0.69335
3298.19844,0.69215
3296.26967,0.69099
3294.34090,0.68983
3292.41213,0.68866
3290.48336,0.68752
3288.55459,0.68642
3286.62582,0.68536
3284.69705,0.68430
3282.76827,0.68326
3280.83950,0.68227
3278.91073,0.68131
3276.98196,0.68035
3275.05319,0.67942
3273.12442,0.67851
3271.19565,0.67759
3269.26688,0.67669
3267.33811,0.67579
3265.40934,0.67489
3263.48056,0.67397
3261.55179,0.67305
3259.62302,0.67215
3257.69425,0.67123
3255.76548,0.67029
3253.83671,0.66935
3251.90794,0.66838
3249.97917,0.66735
3248.05040,0.66631
3246.12162,0.66531
3244.19285,0.66431
3242.26408,0.66328
3240.33531,0.66218
3238.40654,0.66106
3236.47777,0.65992
3234.54900,0.65880
3232.62023,0.65772
3230.69146,0.65666
3228.76269,0.65559
3226.83391,0.65451
3224.90514,0.65341
3222.97637,0.65230
3221.04760,0.65119
3219.11883,0.65012
3217.19006,0.64906
3215.26129,0.64799
3213.33252,0.64692
3211.40375,0.64586
3209.47498,0.64481
3207.54620,0.64376
3205.61743,0.64270
3203.68866,0.64161
3201.75989,0.64050
3199.83112,0.63939
3197.90235,0.63832
3195.97358,0.63727
3194.04481,0.63621
3192.11604,0.63515
3190.18727,0.63409
3188.25849,0.63302
3186.32972,0.63200
3184.40095,0.63103
3182.47218,0.63003
3180.54341,0.62905
3178.61464,0.62811
3176.68587,0.62718
3174.75710,0.62624
3172.82833,0.62527
3170.89956,0.62432
3168.97078,0.62340
3167.04201,0.62250
3165.11324,0.62161
3163.18447,0.62072
3161.25570,0.61984
3159.32693,0.61896
3157.39816,0.61811
3155.46939,0.61726
3153.54062,0.61640
3151.61185,0.61557
3149.68307,0.61477
3147.75430,0.61396
3145.82553,0.61315
3143.89676,0.61235
3141.96799,0.61156
3140.03922,0.61079
3138.11045,0.61003
3136.18168,0.60927
3134.25291,0.60851
3132.32413,0.60778
3130.39536,0.60702
3128.46659,0.60626
3126.53782,0.60552
3124.60905,0.60480
3122.68028,0.60408
3120.75151,0.60336
3118.82274,0.60264
3116.89397,0.60194
3114.96520,0.60126
3113.03642,0.60059
3111.10765,0.59989
3109.17888,0.59916
3107.25011,0.59846
3105.32134,0.59778
3103.39257,0.59710
3101.46380,0.59646
3099.53503,0.59583
3097.60626,0.59516
3095.67749,0.59450
3093.74871,0.59383
3091.81994,0.59313
3089.89117,0.59243
3087.96240,0.59177
3086.03363,0.59114
3084.10486,0.59050
3082.17609,0.58986
3080.24732,0.58923
3078.31855,0.58863
3076.38978,0.58805
3074.46100,0.58745
3072.53223,0.58682
3070.60346,0.58618
3068.67469,0.58556
3066.74592,0.58499
3064.81715,0.58445
3062.88838,0.58387
3060.95961,0.58325
3059.03084,0.58267
3057.10207,0.58213
3055.17329,0.58159
3053.24452,0.58100
3051.31575,0.58043
3049.38698,0.57992
3047.45821,0.57941
3045.52944,0.57887
3043.60067,0.57834
3041.67190,0.57786
3039.74313,0.57741
3037.81435,0.57698
3035.88558,0.57657
3033.95681,0.57620
3032.02804,0.57589
3030.09927,0.57560
3028.17050,0.57529
3026.24173,0.57500
3024.31296,0.57477
3022.38419,0.57459
3020.45542,0.57443
3018.52664,0.57432
3016.59787,0.57431
3014.66910,0.57436
3012.74033,0.57446
3010.81156,0.57459
3008.88279,0.57472
3006.95402,0.57483
3005.02525,0.57493
3003.09648,0.57502
3001.16771,0.57510
2999.23893,0.57515
2997.31016,0.57520
2995.38139,0.57524
2993.45262,0.57528
2991.52385,0.57529
2989.59508,0.57531
2987.66631,0.57531
2985.73754,0.57527
2983.80877,0.57519
2981.88000,0.57508
2979.95122,0.57497
2978.02245,0.57487
2976.09368,0.57480
2974.16491,0.57482
2972.23614,0.57498
2970.30737,0.57528
2968.37860,0.57571
2966.44983,0.57622
2964.52106,0.57673
2962.59229,0.57718
2960.66351,0.57750
2958.73474,0.57763
2956.80597,0.57757
2954.87720,0.57731
2952.94843,0.57689
2951.01966,0.57637
2949.09089,0.57581
2947.16212,0.57529
2945.23335,0.57492
2943.30457,0.57483
2941.37580,0.57506
2939.44703,0.57557
2937.51826,0.57630
2935.58949,0.57716
2933.66072,0.57807
2931.73195,0.57892
2929.80318,0.57960
2927.87441,0.57997
2925.94564,0.57988
2924.01686,0.57925
2922.08809,0.57811
2920.15932,0.57652
2918.23055,0.57452
2916.30178,0.57221
2914.37301,0.56977
2912.44424,0.56740
2910.51547,0.56527
2908.58670,0.56340
2906.65793,0.56170
2904.72915,0.56006
2902.80038,0.55847
2900.87161,0.55695
2898.94284,0.55553
2897.01407,0.55421
2895.08530,0.55302
2893.15653,0.55192
2891.22776,0.55089
2889.29899,0.54991
2887.37022,0.54903
2885.44144,0.54827
2883.51267,0.54766
2881.58390,0.54719
2879.65513,0.54680
2877.72636,0.54648
2875.79759,0.54619
2873.86882,0.54591
2871.94005,0.54559
2870.01128,0.54516
2868.08251,0.54463
2866.15373,0.54408
2864.22496,0.54363
2862.29619,0.54339
2860.36742,0.54340
2858.43865,0.54358
2856.50988,0.54372
2854.58111,0.54358
2852.65234,0.54301
2850.72357,0.54194
2848.79480,0.54042
2846.86602,0.53868
2844.93725,0.53697
2843.00848,0.53544
2841.07971,0.53407
2839.15094,0.53280
2837.22217,0.53159
2835.29340,0.53041
2833.36463,0.52928
2831.43586,0.52821
2829.50708,0.52724
2827.57831,0.52637
2825.64954,0.52559
2823.72077,0.52487
2821.79200,0.52422
2819.86323,0.52361
2817.93446,0.52301
2816.00569,0.52242
2814.07692,0.52185
2812.14815,0.52128
2810.21937,0.52072
2808.29060,0.52017
2806.36183,0.51963
2804.43306,0.51908
2802.50429,0.51854
2800.57552,0.51801
2798.64675,0.51750
2796.71798,0.51701
2794.78921,0.51651
2792.86044,0.51600
2790.93166,0.51549
2789.00289,0.51498
2787.07412,0.51448
2785.14535,0.51398
2783.21658,0.51351
2781.28781,0.51303
2779.35904,0.51255
2777.43027,0.51205
2775.50150,0.51158
2773.57273,0.51113
2771.64395,0.51071
2769.71518,0.51027
2767.78641,0.50982
2765.85764,0.50937
2763.92887,0.50891
2762.00010,0.50844
2760.07133,0.50797
2758.14256,0.50752
2756.21379,0.50707
2754.28502,0.50662
2752.35624,0.50617
2750.42747,0.50572
2748.49870,0.50527
2746.56993,0.50484
2744.64116,0.50440
2742.71239,0.50396
2740.78362,0.50352
2738.85485,0.50309
2736.92608,0.50264
2734.99730,0.50219
2733.06853,0.50175
2731.13976,0.50131
2729.21099,0.50088
2727.28222,0.50044
2725.35345,0.49999
2723.42468,0.49953
2721.49591,0.49907
2719.56714,0.49861
2717.63837,0.49814
2715.70959,0.49766
2713.78082,0.49718
2711.85205,0.49672
2709.92328,0.49627
2707.99451,0.49581
2706.06574,0.49535
2704.13697,0.49488
2702.20820,0.49443
2700.27943,0.49400
2698.35066,0.49357
2696.42188,0.49312
2694.49311,0.49268
2692.56434,0.49226
2690.63557,0.49183
2688.70680,0.49140
2686.77803,0.49096
2684.84926,0.49053
2682.92049,0.49010
2680.99172,0.48967
2679.06295,0.48926
2677.13417,0.48884
2675.20540,0.48841
2673.27663,0.48798
2671.34786,0.48755
2669.41909,0.48712
2667.49032,0.48670
2665.56155,0.48628
2663.63278,0.48587
2661.70401,0.48544
2659.77524,0.48501
2657.84646,0.48458
2655.91769,0.48416
2653.98892,0.48372
2652.06015,0.48329
2650.13138,0.48285
2648.20261,0.48242
2646.27384,0.48198
2644.34507,0.48154
2642.41630,0.48110
2640.48752,0.48067
2638.55875,0.48025
2636.62998,0.47983
2634.70121,0.47940
2632.77244,0.47897
2630.84367,0.47853
2628.91490,0.47811
2626.98613,0.47769
2625.05736,0.47727
2623.12859,0.47685
2621.19981,0.47642
2619.27104,0.47600
2617.34227,0.47557
2615.41350,0.47515
2613.48473,0.47473
2611.55596,0.47431
2609.62719,0.47390
2607.69842,0.47349
2605.76965,0.47308
2603.84088,0.47267
2601.91210,0.47226
2599.98333,0.47184
2598.05456,0.47142
2596.12579,0.47101
2594.19702,0.47059
2592.26825,0.47017
2590.33948,0.46975
2588.41071,0.46934
2586.48194,0.46894
2584.55317,0.46855
2582.62439,0.46815
2580.69562,0.46775
2578.76685,0.46735
2576.83808,0.46694
2574.90931,0.46654
2572.98054,0.46612
2571.05177,0.46569
2569.12300,0.46527
2567.19423,0.46487
2565.26546,0.46446
2563.33668,0.46405
2561.40791,0.46365
2559.47914,0.46325
2557.55037,0.46285
2555.62160,0.46244
2553.69283,0.46205
2551.76406,0.46166
2549.83529,0.46126
2547.90652,0.46085
2545.97775,0.46044
2544.04897,0.46003
2542.12020,0.45961
2540.19143,0.45920
2538.26266,0.45880
2536.33389,0.45840
2534.40512,0.45801
2532.47635,0.45763
2530.54758,0.45723
2528.61881,0.45683
2526.69003,0.45642
2524.76126,0.45603
2522.83249,0.45563
2520.90372,0.45523
2518.97495,0.45483
2517.04618,0.45443
2515.11741,0.45402
2513.18864,0.45361
2511.25987,0.45320
2509.33110,0.45280
2507.40232,0.45241
2505.47355,0.45201
2503.54478,0.45161
2501.61601,0.45122
2499.68724,0.45083
2497.75847,0.45044
2495.82970,0.45004
2493.90093,0.44965
2491.97216,0.44926
2490.04339,0.44886
2488.11461,0.44847
2486.18584,0.44808
2484.25707,0.44769
2482.32830,0.44729
2480.39953,0.44688
2478.47076,0.44649
2476.54199,0.44611
2474.61322,0.44573
2472.68445,0.44534
2470.75568,0.44495
2468.82690,0.44456
2466.89813,0.44418
2464.96936,0.44379
2463.04059,0.44340
2461.11182,0.44301
2459.18305,0.44263
2457.25428,0.44225
2455.32551,0.44186
2453.39674,0.44146
2451.46797,0.44108
2449.53919,0.44070
2447.61042,0.44032
2445.68165,0.43994
2443.75288,0.43957
2441.82411,0.43919
2439.89534,0.43881
2437.96657,0.43844
2436.03780,0.43806
2434.10903,0.43768
2432.18025,0.43731
2430.25148,0.43693
2428.32271,0.43656
2426.39394,0.43617
2424.46517,0.43579
2422.53640,0.43541
2420.60763,0.43503
2418.67886,0.43465
2416.75009,0.43428
2414.82132,0.43391
2412.89254,0.43353
2410.96377,0.43316
2409.03500,0.43278
2407.10623,0.43241
2405.17746,0.43204
2403.24869,0.43167
2401.31992,0.43128
2399.39115,0.43090
2397.46238,0.43051
2395.53361,0.43014
2393.60483,0.42976
2391.67606,0.42936
2389.74729,0.42890
2387.81852,0.42833
2385.88975,0.42760
2383.96098,0.42671
2382.03221,0.42571
2380.10344,0.42470
2378.17467,0.42373
2376.24590,0.42279
2374.31712,0.42187
2372.38835,0.42096
2370.45958,0.42011
2368.53081,0.41935
2366.60204,0.41872
2364.67327,0.41832
2362.74450,0.41819
2360.81573,0.41843
2358.88696,0.41913
2356.95819,0.42017
2355.02941,0.42132
2353.10064,0.42227
2351.17187,0.42190
2349.24310,0.41974
2347.31433,0.41699
2345.38556,0.41547
2343.45679,0.41584
2341.52802,0.41651
2339.59925,0.41671
2337.67048,0.41659
2335.74170,0.41623
2333.81293,0.41574
2331.88416,0.41548
2329.95539,0.41552
2328.02662,0.41549
2326.09785,0.41523
2324.16908,0.41502
2322.24031,0.41508
2320.31154,0.41518
2318.38276,0.41503
2316.45399,0.41458
2314.52522,0.41407
2312.59645,0.41374
2310.66768,0.41355
2308.73891,0.41336
2306.81014,0.41310
2304.88137,0.41274
2302.95260,0.41233
2301.02383,0.41195
2299.09505,0.41161
2297.16628,0.41126
2295.23751,0.41093
2293.30874,0.41061
2291.37997,0.41028
2289.45120,0.40996
2287.52243,0.40964
2285.59366,0.40928
2283.66489,0.40885
2281.73612,0.40841
2279.80734,0.40800
2277.87857,0.40764
2275.94980,0.40729
2274.02103,0.40695
2272.09226,0.40662
2270.16349,0.40628
2268.23472,0.40593
2266.30595,0.40557
2264.37718,0.40523
2262.44841,0.40489
2260.51963,0.40455
2258.59086,0.40420
2256.66209,0.40386
2254.73332,0.40352
2252.80455,0.40318
2250.87578,0.40282
2248.94701,0.40247
2247.01824,0.40212
2245.08947,0.40177
2243.16070,0.40144
2241.23192,0.40110
2239.30315,0.40076
2237.37438,0.40041
2235.44561,0.40005
2233.51684,0.39971
2231.58807,0.39936
2229.65930,0.39901
2227.73053,0.39867
2225.80176,0.39833
2223.87298,0.39800
2221.94421,0.39765
2220.01544,0.39731
2218.08667,0.39697
2216.15790,0.39665
2214.22913,0.39632
2212.30036,0.39599
2210.37159,0.39565
2208.44282,0.39532
2206.51405,0.39498
2204.58527,0.39465
2202.65650,0.39433
2200.72773,0.39402
2198.79896,0.39369
2196.87019,0.39337
2194.94142,0.39305
2193.01265,0.39273
2191.08388,0.39242
2189.15511,0.39210
2187.22634,0.39179
2185.29756,0.39147
2183.36879,0.39116
2181.44002,0.39086
2179.51125,0.39056
2177.58248,0.39026
2175.65371,0.38995
2173.72494,0.38965
2171.79617,0.38936
2169.86740,0.38908
2167.93863,0.38879
2166.00985,0.38849
2164.08108,0.38819
2162.15231,0.38790
2160.22354,0.38761
2158.29477,0.38732
2156.36600,0.38704
2154.43723,0.38675
2152.50846,0.38647
2150.57969,0.38619
2148.65092,0.38589
2146.72214,0.38560
2144.79337,0.38532
2142.86460,0.38505
2140.93583,0.38477
2139.00706,0.38448
2137.07829,0.38420
2135.14952,0.38392
2133.22075,0.38363
2131.29198,0.38333
2129.36320,0.38304
2127.43443,0.38275
2125.50566,0.38247
2123.57689,0.38219
2121.64812,0.38190
2119.71935,0.38161
2117.79058,0.38132
2115.86181,0.38105
2113.93304,0.38076
2112.00427,0.38047
2110.07549,0.38018
2108.14672,0.37990
2106.21795,0.37963
2104.28918,0.37937
2102.36041,0.37909
2100.43164,0.37882
2098.50287,0.37856
2096.57410,0.37829
2094.64533,0.37804
2092.71656,0.37779
2090.78778,0.37756
2088.85901,0.37732
2086.93024,0.37706
2085.00147,0.37682
2083.07270,0.37658
2081.14393,0.37634
2079.21516,0.37610
2077.28639,0.37587
2075.35762,0.37562
2073.42885,0.37535
2071.50007,0.37507
2069.57130,0.37479
2067.64253,0.37451
2065.71376,0.37426
2063.78499,0.37400
2061.85622,0.37370
2059.92745,0.37341
2057.99868,0.37313
2056.06991,0.37284
2054.14114,0.37255
2052.21236,0.37228
2050.28359,0.37202
2048.35482,0.37175
2046.42605,0.37148
2044.49728,0.37122
2042.56851,0.37098
2040.63974,0.37074
2038.71097,0.37050
2036.78220,0.37025
2034.85343,0.37000
2032.92465,0.36976
2030.99588,0.36952
2029.06711,0.36929
2027.13834,0.36906
2025.20957,0.36882
2023.28080,0.36858
2021.35203,0.36832
2019.42326,0.36809
2017.49449,0.36789
2015.56571,0.36765
2013.63694,0.36733
2011.70817,0.36701
2009.77940,0.36670
2007.85063,0.36639
2005.92186,0.36607
2003.99309,0.36575
2002.06432,0.36543
2000.13555,0.36513
1998.20678,0.36484
1996.27800,0.36454
1994.34923,0.36427
1992.42046,0.36407
1990.49169,0.36384
1988.56292,0.36351
1986.63415,0.36318
1984.70538,0.36289
1982.77661,0.36262
1980.84784,0.36236
1978.91907,0.36211
1976.99029,0.36186
1975.06152,0.36160
1973.13275,0.36135
1971.20398,0.36109
1969.27521,0.36087
1967.34644,0.36071
1965.41767,0.36049
1963.48890,0.36019
1961.56013,0.35990
1959.63136,0.35966
1957.70258,0.35943
1955.77381,0.35920
1953.84504,0.35895
1951.91627,0.35871
1949.98750,0.35848
1948.05873,0.35825
1946.12996,0.35804
1944.20119,0.35788
1942.27242,0.35777
1940.34365,0.35750
1938.41487,0.35710
1936.48610,0.35674
1934.55733,0.35644
1932.62856,0.35614
1930.69979,0.35583
1928.77102,0.35550
1926.84225,0.35517
1924.91348,0.35489
1922.98471,0.35467
1921.05593,0.35437
1919.12716,0.35411
1917.19839,0.35394
1915.26962,0.35358
1913.34085,0.35311
1911.41208,0.35279
1909.48331,0.35257
1907.55454,0.35231
1905.62577,0.35198
1903.69700,0.35165
1901.76822,0.35136
1899.83945,0.35105
1897.91068,0.35076
1895.98191,0.35051
1894.05314,0.35025
1892.12437,0.34994
1890.19560,0.34973
1888.26683,0.34952
1886.33806,0.34915
1884.40929,0.34876
1882.48051,0.34846
1880.55174,0.34819
1878.62297,0.34794
1876.69420,0.34770
1874.76543,0.34745
1872.83666,0.34719
1870.90789,0.34712
1868.97912,0.34732
1867.05035,0.34731
1865.12158,0.34690
1863.19280,0.34648
1861.26403,0.34626
1859.33526,0.34614
1857.40649,0.34602
1855.47772,0.34590
1853.54895,0.34578
1851.62018,0.34568
1849.69141,0.34560
1847.76264,0.34553
1845.83387,0.34567
1843.90509,0.34601
1841.97632,0.34594
1840.04755,0.34548
1838.11878,0.34519
1836.19001,0.34509
1834.26124,0.34493
1832.33247,0.34485
1830.40370,0.34505
1828.47493,0.34513
1826.54615,0.34492
1824.61738,0.34474
1822.68861,0.34449
1820.75984,0.34415
1818.83107,0.34393
1816.90230,0.34383
1814.97353,0.34372
1813.04476,0.34368
1811.11599,0.34377
1809.18722,0.34383
1807.25844,0.34375
1805.32967,0.34369
1803.40090,0.34382
1801.47213,0.34419
1799.54336,0.34459
1797.61459,0.34478
1795.68582,0.34495
1793.75705,0.34558
1791.82828,0.34663
1789.89951,0.34727
1787.97073,0.34755
1786.04196,0.34821
1784.11319,0.34926
1782.18442,0.35034
1780.25565,0.35141
1778.32688,0.35233
1776.39811,0.35304
1774.46934,0.35393
1772.54057,0.35524
1770.61180,0.35613
1768.68302,0.35625
1766.75425,0.35611
1764.82548,0.35593
1762.89671,0.35598
1760.96794,0.35615
1759.03917,0.35598
1757.11040,0.35568
1755.18163,0.35528
1753.25286,0.35484
1751.32409,0.35480
1749.39531,0.35484
1747.46654,0.35438
1745.53777,0.35370
1743.60900,0.35314
1741.68023,0.35283
1739.75146,0.35265
1737.82269,0.35220
1735.89392,0.35195
1733.96515,0.35251
1732.03638,0.35273
1730.10760,0.35224
1728.17883,0.35192
1726.25006,0.35196
1724.32129,0.35231
1722.39252,0.35275
1720.46375,0.35327
1718.53498,0.35443
1716.60621,0.35587
1714.67744,0.35629
1712.74866,0.35599
1710.81989,0.35574
1708.89112,0.35577
1706.96235,0.35613
1705.03358,0.35643
1703.10481,0.35641
1701.17604,0.35688
1699.24727,0.35761
1697.31850,0.35757
1695.38973,0.35733
1693.46095,0.35693
1691.53218,0.35651
1689.60341,0.35658
1687.67464,0.35692
1685.74587,0.35792
1683.81710,0.35970
1681.88833,0.36037
1679.95956,0.36017
1678.03079,0.36042
1676.10202,0.36164
1674.17324,0.36322
1672.24447,0.36447
1670.31570,0.36605
1668.38693,0.36788
1666.45816,0.36903
1664.52939,0.37025
1662.60062,0.37224
1660.67185,0.37417
1658.74308,0.37559
1656.81431,0.37692
1654.88553,0.37932
1652.95676,0.38366
1651.02799,0.38649
1649.09922,0.38769
1647.17045,0.39004
1645.24168,0.39287
1643.31291,0.39461
1641.38414,0.39609
1639.45537,0.39789
1637.52660,0.40030
1635.59782,0.40359
1633.66905,0.40597
1631.74028,0.40660
1629.81151,0.40669
1627.88274,0.40674
1625.95397,0.40672
1624.02520,0.40682
1622.09643,0.40683
1620.16766,0.40642
1618.23888,0.40605
1616.31011,0.40565
1614.38134,0.40439
1612.45257,0.40267
1610.52380,0.40116
1608.59503,0.39983
1606.66626,0.39841
1604.73749,0.39689
1602.80872,0.39532
1600.87995,0.39363
1598.95117,0.39183
1597.02240,0.38998
1595.09363,0.38809
1593.16486,0.38610
1591.23609,0.38399
1589.30732,0.38178
1587.37855,0.37952
1585.44978,0.37730
1583.52101,0.37519
1581.59224,0.37320
1579.66346,0.37140
1577.73469,0.37000
1575.80592,0.36870
1573.87715,0.36697
1571.94838,0.36529
1570.01961,0.36405
1568.09084,0.36279
1566.16207,0.36131
1564.23330,0.35991
1562.30453,0.35886
1560.37575,0.35870
1558.44698,0.35886
1556.51821,0.35753
1554.58944,0.35568
1552.66067,0.35424
1550.73190,0.35312
1548.80313,0.35213
1546.87436,0.35130
1544.94559,0.35082
1543.01682,0.35069
1541.08804,0.35079
1539.15927,0.35041
1537.23050,0.34910
1535.30173,0.34801
1533.37296,0.34757
1531.44419,0.34711
1529.51542,0.34653
1527.58665,0.34634
1525.65788,0.34640
1523.72910,0.34651
1521.80033,0.34686
1519.87156,0.34703
1517.94279,0.34683
1516.01402,0.34656
1514.08525,0.34623
1512.15648,0.34603
1510.22771,0.34619
1508.29894,0.34697
1506.37017,0.34797
1504.44139,0.34775
1502.51262,0.34698
1500.58385,0.34683
1498.65508,0.34742
1496.72631,0.34820
1494.79754,0.34857
1492.86877,0.34876
1490.94000,0.34950
1489.01123,0.35060
1487.08246,0.35134
1485.15368,0.35181
1483.22491,0.35249
1481.29614,0.35353
1479.36737,0.35478
1477.43860,0.35629
1475.50983,0.35825
1473.58106,0.36079
1471.65229,0.36341
1469.72352,0.36518
1467.79475,0.36659
1465.86597,0.36838
1463.93720,0.37009
1462.00843,0.37108
1460.07966,0.37194
1458.15089,0.37342
1456.22212,0.37471
1454.29335,0.37468
1452.36458,0.37425
1450.43581,0.37422
1448.50704,0.37452
1446.57826,0.37474
1444.64949,0.37473
1442.72072,0.37469
1440.79195,0.37476
1438.86318,0.37512
1436.93441,0.37592
1435.00564,0.37648
1433.07687,0.37662
1431.14810,0.37703
1429.21933,0.37777
1427.29055,0.37849
1425.36178,0.37929
1423.43301,0.38019
1421.50424,0.38116
1419.57547,0.38245
1417.64670,0.38358
1415.71793,0.38407
1413.78916,0.38453
1411.86039,0.38541
1409.93161,0.38676
1408.00284,0.38846
1406.07407,0.39002
1404.14530,0.39070
1402.21653,0.39063
1400.28776,0.39098
1398.35899,0.39221
1396.43022,0.39373
1394.50145,0.39499
1392.57268,0.39597
1390.64390,0.39723
1388.71513,0.39961
1386.78636,0.40315
1384.85759,0.40664
1382.92882,0.40918
1381.00005,0.41086
1379.07128,0.41195
1377.14251,0.41246
1375.21374,0.41214
1373.28497,0.41103
1371.35619,0.40993
1369.42742,0.40961
1367.49865,0.40980
1365.56988,0.40978
1363.64111,0.40931
1361.71234,0.40859
1359.78357,0.40788
1357.85480,0.40740
1355.92603,0.40718
1353.99726,0.40710
1352.06848,0.40710
1350.13971,0.40718
1348.21094,0.40732
1346.28217,0.40750
1344.35340,0.40775
1342.42463,0.40812
1340.49586,0.40865
1338.56709,0.40921
1336.63832,0.40970
1334.70955,0.41023
1332.78077,0.41093
1330.85200,0.41180
1328.92323,0.41278
1326.99446,0.41383
1325.06569,0.41494
1323.13692,0.41607
1321.20815,0.41726
1319.27938,0.41850
1317.35061,0.41974
1315.42183,0.42098
1313.49306,0.42225
1311.56429,0.42356
1309.63552,0.42490
1307.70675,0.42626
1305.77798,0.42766
1303.84921,0.42907
1301.92044,0.43047
1299.99167,0.43184
1298.06290,0.43323
1296.13412,0.43463
1294.20535,0.43602
1292.27658,0.43742
1290.34781,0.43886
1288.41904,0.44039
1286.49027,0.44196
1284.56150,0.44357
1282.63273,0.44522
1280.70396,0.44694
1278.77519,0.44870
1276.84641,0.45052
1274.91764,0.45240
1272.98887,0.45435
1271.06010,0.45639
1269.13133,0.45849
1267.20256,0.46067
1265.27379,0.46293
1263.34502,0.46526
1261.41625,0.46764
1259.48748,0.47004
1257.55870,0.47248
1255.62993,0.47500
1253.70116,0.47766
1251.77239,0.48047
1249.84362,0.48342
1247.91485,0.48648
1245.98608,0.48960
1244.05731,0.49277
1242.12854,0.49598
1240.19977,0.49923
1238.27099,0.50253
1236.34222,0.50586
1234.41345,0.50924
1232.48468,0.51269
1230.55591,0.51624
1228.62714,0.51988
1226.69837,0.52360
1224.76960,0.52741
1222.84083,0.53134
1220.91206,0.53543
1218.98328,0.53973
1217.05451,0.54431
1215.12574,0.54919
1213.19697,0.55438
1211.26820,0.55986
1209.33943,0.56553
1207.41066,0.57130
1205.48189,0.57705
1203.55312,0.58275
1201.62434,0.58846
1199.69557,0.59426
1197.76680,0.60019
1195.83803,0.60625
1193.90926,0.61242
1191.98049,0.61870
1190.05172,0.62512
1188.12295,0.63173
1186.19418,0.63845
1184.26541,0.64521
1182.33663,0.65202
1180.40786,0.65887
1178.47909,0.66574
1176.55032,0.67261
1174.62155,0.67950
1172.69278,0.68635
1170.76401,0.69313
1168.83524,0.69978
1166.90647,0.70628
1164.97770,0.71262
1163.04892,0.71880
1161.12015,0.72490
1159.19138,0.73096
1157.26261,0.73699
1155.33384,0.74302
1153.40507,0.74907
1151.47630,0.75524
1149.54753,0.76158
1147.61876,0.76812
1145.68999,0.77477
1143.76121,0.78128
1141.83244,0.78733
1139.90367,0.79308
1137.97490,0.79926
1136.04613,0.80661
1134.11736,0.81550
1132.18859,0.82592
1130.25982,0.83758
1128.33105,0.84968
1126.40228,0.86105
1124.47350,0.87038
1122.54473,0.87660
1120.61596,0.87995
1118.68719,0.88205
1116.75842,0.88489
1114.82965,0.88978
1112.90088,0.89715
1110.97211,0.90683
1109.04334,0.91843
1107.11456,0.93169
1105.18579,0.94635
1103.25702,0.96209
1101.32825,0.97839
1099.39948,0.99467
1097.47071,1.01048
1095.54194,1.02541
1093.61317,1.03912
1091.68440,1.05136
1089.75563,1.06222
1087.82685,1.07185
1085.89808,1.08044
1083.96931,1.08832
1082.04054,1.09566
1080.11177,1.10258
1078.18300,1.10920
1076.25423,1.11571
1074.32546,1.12207
1072.39669,1.12811
1070.46792,1.13368
1068.53914,1.13869
1066.61037,1.14318
1064.68160,1.14704
1062.75283,1.15013
1060.82406,1.15230
1058.89529,1.15332
1056.96652,1.15292
1055.03775,1.15086
1053.10898,1.14731
1051.18021,1.14235
1049.25143,1.13607
1047.32266,1.12873
1045.39389,1.12103
1043.46512,1.11414
1041.53635,1.10932
1039.60758,1.10725
1037.67881,1.10783
1035.75004,1.11078
1033.82127,1.11591
1031.89250,1.12282
1029.96372,1.13082
1028.03495,1.13924
1026.10618,1.14790
1024.17741,1.15703
1022.24864,1.16723
1020.31987,1.17889
1018.39110,1.19160
1016.46233,1.20468
1014.53356,1.21769
1012.60478,1.23051
1010.67601,1.24300
1008.74724,1.25469
1006.81847,1.26475
1004.88970,1.27251
1002.96093,1.27746
1001.03216,1.27921
999.10339,1.27792
997.17462,1.27453
995.24585,1.27060
993.31707,1.26779
991.38830,1.26757
989.45953,1.27098
987.53076,1.27812
985.60199,1.28797
983.67322,1.29900
981.74445,1.31012
979.81568,1.32058
977.88691,1.32913
975.95814,1.33369
974.02936,1.33228
972.10059,1.32428
970.17182,1.31084
968.24305,1.29420
966.31428,1.27664
964.38551,1.26009
962.45674,1.24655
960.52797,1.23867
958.59920,1.24017
956.67043,1.25426
954.74165,1.27889
952.81288,1.30445
950.88411,1.32076
948.95534,1.32553
947.02657,1.32286
945.09780,1.31742
943.16903,1.31215
941.24026,1.30846
939.31149,1.30679
937.38272,1.30699
935.45394,1.30899
933.52517,1.31297
931.59640,1.31862
929.66763,1.32491
927.73886,1.33071
925.81009,1.33505
923.88132,1.33663
921.95255,1.33422
920.02378,1.32746
918.09501,1.31707
916.16623,1.30474
914.23746,1.29273
912.30869,1.28294
910.37992,1.27657
908.45115,1.27453
906.52238,1.27741
904.59361,1.28536
902.66484,1.29803
900.73607,1.31433
898.80729,1.33285
896.87852,1.35225
894.94975,1.37163
893.02098,1.39035
891.09221,1.40765
889.16344,1.42226
887.23467,1.43252
885.30590,1.43661
883.37713,1.43291
881.44836,1.42136
879.51958,1.40305
877.59081,1.37943
875.66204,1.35190
873.73327,1.32164
871.80450,1.29019
869.87573,1.25890
867.94696,1.22833
866.01819,1.19822
864.08942,1.16837
862.16065,1.13894
860.23187,1.11004
858.30310,1.08169
856.37433,1.05353
854.44556,1.02516
852.51679,0.99612
850.58802,0.96670
848.65925,0.93869
846.73048,0.91521
844.80171,0.89964
842.87294,0.89306
840.94416,0.89201
839.01539,0.88921
837.08662,0.87839
835.15785,0.85854
833.22908,0.83306
831.30031,0.80604
829.37154,0.77977
827.44277,0.75494
825.51400,0.73139
823.58523,0.70910
821.65645,0.68817
819.72768,0.66859
817.79891,0.65035
815.87014,0.63345
813.94137,0.61790
812.01260,0.60357
810.08383,0.59035
808.15506,0.57811
806.22629,0.56666
804.29751,0.55580
802.36874,0.54539
800.43997,0.53541
798.51120,0.52578
796.58243,0.51641
794.65366,0.50726
792.72489,0.49826
790.79612,0.48938
788.86735,0.48059
786.93858,0.47201
785.00980,0.46366
783.08103,0.45553
781.15226,0.44754
779.22349,0.43962
777.29472,0.43187
775.36595,0.42432
773.43718,0.41709
771.50841,0.41022
769.57964,0.40372
767.65087,0.39754
765.72209,0.39165
763.79332,0.38610
761.86455,0.38084
759.93578,0.37586
758.00701,0.37115
756.07824,0.36690
754.14947,0.36343
752.22070,0.36111
750.29193,0.36036
748.36316,0.36140
746.43438,0.36372
744.50561,0.36556
742.57684,0.36500
740.64807,0.36225
738.71930,0.35964
736.79053,0.35949
734.86176,0.36254
732.93299,0.36844
731.00422,0.37629
729.07545,0.38443
727.14667,0.39012
725.21790,0.39070
723.28913,0.38569
721.36036,0.37668
719.43159,0.36616
717.50282,0.35639
715.57405,0.34813
713.64528,0.34135
711.71651,0.33609
709.78773,0.33229
707.85896,0.32973
705.93019,0.32833
704.00142,0.32806
702.07265,0.32899
700.14388,0.33135
698.21511,0.33540
696.28634,0.34133
694.35757,0.34895
692.42880,0.35743
690.50002,0.36508
688.57125,0.36988
686.64248,0.37055
684.71371,0.36760
682.78494,0.36305
680.85617,0.35888
678.92740,0.35590
676.99863,0.35342
675.06986,0.35044
673.14109,0.34701
671.21231,0.34403
669.28354,0.34287
667.35477,0.34594
665.42600,0.35113
663.49723,0.35765
661.56846,0.36740
659.63969,0.38052
657.71092,0.39634
655.78215,0.41431
653.85338,0.43347
651.92460,0.45275
649.99583,0.47178
648.06706,0.49055
646.13829,0.50806
644.20952,0.52255
642.28075,0.53210
640.35198,0.53569
638.42321,0.53378
636.49444,0.52849
634.56567,0.52214
632.63689,0.51663
630.70812,0.51312
628.77935,0.51232
626.85058,0.51469
624.92181,0.52021
622.99304,0.52869
621.06427,0.53969
619.13550,0.55313
617.20673,0.56883
615.27796,0.58547
613.34918,0.60198
611.42041,0.61813
609.49164,0.63390
607.56287,0.64891
605.63410,0.66273
603.70533,0.67477
601.77656,0.68483
599.84779,0.69289
597.91902,0.69834
595.99024,0.70080
594.06147,0.69986
592.13270,0.69573
590.20393,0.68935
588.27516,0.68209
586.34639,0.67530
584.41762,0.66997
582.48885,0.66704
580.56008,0.66694
578.63131,0.67014
576.70253,0.67676
574.77376,0.68652
572.84499,0.69904
570.91622,0.71414
568.98745,0.73155
567.05868,0.74981
565.12991,0.76757
563.20114,0.78414
561.27237,0.79973
559.34360,0.81581
557.41482,0.83443
555.48605,0.85712
553.55728,0.88355
551.62851,0.91318
549.69974,0.94517
547.77097,0.97738
545.84220,1.00684
543.91343,1.03057
541.98466,1.04728
540.05589,1.05705
538.12711,1.06142
536.19834,1.06123
534.26957,1.05737
532.34080,1.05309
530.41203,1.05337
528.48326,1.06292
526.55449,1.08351
524.62572,1.11223
522.69695,1.14186
520.76818,1.16743
518.83940,1.18694
516.91063,1.20040
514.98186,1.21088
513.05309,1.21985
511.12432,1.22747
509.19555,1.23425
507.26678,1.24107
505.33801,1.24755
503.40924,1.25145
501.48046,1.24911
499.55169,1.23668
497.62292,1.21372
495.69415,1.18215
493.76538,1.14460
491.83661,1.10350
489.90784,1.06124
487.97907,1.01988
486.05030,0.98113
484.12153,0.94691
482.19275,0.91856
480.26398,0.89633
478.33521,0.87963
476.40644,0.86767
474.47767,0.85967
472.54890,0.85570
470.62013,0.85596
468.69136,0.85872
466.76259,0.86145
464.83382,0.86292
462.90504,0.86374
460.97627,0.86470
459.04750,0.86586
457.11873,0.86651
455.18996,0.86611
453.26119,0.86595
451.33242,0.86777
449.40365,0.87246
447.47488,0.87960
445.54611,0.88783
443.61733,0.89601
441.68856,0.90396
439.75979,0.91243
437.83102,0.92299
435.90225,0.93683
433.97348,0.95379
432.04471,0.97321
430.11594,0.99349
428.18717,1.01344
426.25840,1.03287
424.32962,1.05045
422.40085,1.06490
420.47208,1.07941
418.54331,1.09824
416.61454,1.11657
414.68577,1.13083
412.75700,1.14175
410.82823,1.14692
408.89946,1.14244
406.97069,1.12634
405.04191,1.10439
403.11314,1.08410
401.18437,1.06683
399.25560,1.04750
397.32683,1.02259
395.39806,0.99636
393.46929,0.97379
391.54052,0.95117
389.61175,0.92267
387.68297,0.89191
385.75420,0.86372
383.82543,0.84095
381.89666,0.82295
379.96789,0.80994
378.03912,0.80746
376.11035,0.81409
374.18158,0.81862
372.25281,0.81699
370.32404,0.81887
368.39526,0.82495
366.46649,0.82892
364.53772,0.83644
362.60895,0.84904
360.68018,0.85601
358.75141,0.86011
356.82264,0.89269
354.89387,0.94868
352.96510,0.95125
351.03633,0.88367
349.10755,0.82921
