# 23 Sept 2014 - B.L. de Vries
# Bjurbole, L4, Sample 1
# m = 6 mgr, KBr = 200 mgr (2scoops)
# Signal = 1000
# Resolution / sample scan time / bg scan time / range = 4 / 64 / 64 / 4000-300
# NOTES: looks towards saturation
# Source: glow-bar, Machine: Equinox 55, DTGS
# k(cm-1), absorbance
3999.64014,1.33403
3997.71167,1.33408
3995.78320,1.33406
3993.85474,1.33382
3991.92627,1.33348
3989.99780,1.33290
3988.06934,1.33228
3986.14087,1.33209
3984.21240,1.33200
3982.28394,1.33153
3980.35547,1.33107
3978.42700,1.33119
3976.49854,1.33151
3974.57007,1.33114
3972.64160,1.33041
3970.71313,1.32996
3968.78467,1.32952
3966.85620,1.32912
3964.92773,1.32911
3962.99927,1.32901
3961.07080,1.32838
3959.14233,1.32800
3957.21387,1.32807
3955.28540,1.32795
3953.35693,1.32791
3951.42847,1.32817
3949.50000,1.32744
3947.57153,1.32560
3945.64307,1.32545
3943.71460,1.32605
3941.78613,1.32455
3939.85767,1.32331
3937.92920,1.32398
3936.00073,1.32537
3934.07227,1.32628
3932.14380,1.32468
3930.21533,1.32189
3928.28687,1.32224
3926.35840,1.32428
3924.42993,1.32384
3922.50146,1.32233
3920.57300,1.32284
3918.64453,1.32272
3916.71606,1.32001
3914.78760,1.31837
3912.85913,1.31957
3910.93066,1.32106
3909.00220,1.32255
3907.07373,1.32553
3905.14526,1.32698
3903.21680,1.32288
3901.28833,1.31758
3899.35986,1.31431
3897.43140,1.31331
3895.50293,1.31644
3893.57446,1.32060
3891.64600,1.31923
3889.71753,1.31582
3887.78906,1.31826
3885.86060,1.31989
3883.93213,1.31708
3882.00366,1.31648
3880.07520,1.31438
3878.14673,1.31252
3876.21826,1.31601
3874.28979,1.31860
3872.36133,1.31813
3870.43286,1.31567
3868.50439,1.31164
3866.57593,1.31246
3864.64746,1.31353
3862.71899,1.30968
3860.79053,1.30854
3858.86206,1.31252
3856.93359,1.31890
3855.00513,1.32319
3853.07666,1.31222
3851.14819,1.29913
3849.21973,1.30148
3847.29126,1.30755
3845.36279,1.31206
3843.43433,1.31402
3841.50586,1.31445
3839.57739,1.31313
3837.64893,1.30740
3835.72046,1.30319
3833.79199,1.30397
3831.86353,1.30498
3829.93506,1.30572
3828.00659,1.30729
3826.07813,1.30827
3824.14966,1.31080
3822.22119,1.31287
3820.29272,1.30653
3818.36426,1.30258
3816.43579,1.30258
3814.50732,1.29908
3812.57886,1.29967
3810.65039,1.30490
3808.72192,1.30891
3806.79346,1.30688
3804.86499,1.30483
3802.93652,1.30700
3801.00806,1.30306
3799.07959,1.29830
3797.15112,1.29904
3795.22266,1.29838
3793.29419,1.29851
3791.36572,1.30062
3789.43726,1.30210
3787.50879,1.30304
3785.58032,1.30250
3783.65186,1.30082
3781.72339,1.30149
3779.79492,1.30161
3777.86646,1.29824
3775.93799,1.29722
3774.00952,1.29996
3772.08105,1.30281
3770.15259,1.30162
3768.22412,1.29778
3766.29565,1.29630
3764.36719,1.29602
3762.43872,1.29794
3760.51025,1.30046
3758.58179,1.29793
3756.65332,1.29548
3754.72485,1.29936
3752.79639,1.30436
3750.86792,1.29968
3748.93945,1.29044
3747.01099,1.29259
3745.08252,1.29425
3743.15405,1.28739
3741.22559,1.28673
3739.29712,1.29333
3737.36865,1.29843
3735.44019,1.29456
3733.51172,1.28459
3731.58325,1.28080
3729.65479,1.28377
3727.72632,1.28823
3725.79785,1.28949
3723.86938,1.28783
3721.94092,1.28655
3720.01245,1.28603
3718.08398,1.28704
3716.15552,1.29055
3714.22705,1.29550
3712.29858,1.29573
3710.37012,1.28603
3708.44165,1.28010
3706.51318,1.28248
3704.58472,1.28706
3702.65625,1.28846
3700.72778,1.28524
3698.79932,1.28405
3696.87085,1.28608
3694.94238,1.28891
3693.01392,1.29294
3691.08545,1.29567
3689.15698,1.28938
3687.22852,1.28105
3685.30005,1.28195
3683.37158,1.28678
3681.44312,1.29095
3679.51465,1.29430
3677.58618,1.29719
3675.65771,1.29256
3673.72925,1.28479
3671.80078,1.28710
3669.87231,1.28623
3667.94385,1.28018
3666.01538,1.28169
3664.08691,1.28619
3662.15845,1.28861
3660.22998,1.29015
3658.30151,1.29190
3656.37305,1.29066
3654.44458,1.28963
3652.51611,1.29516
3650.58765,1.29996
3648.65918,1.28987
3646.73071,1.27933
3644.80225,1.28185
3642.87378,1.28734
3640.94531,1.29050
3639.01685,1.29171
3637.08838,1.29298
3635.15991,1.29416
3633.23145,1.29559
3631.30298,1.29894
3629.37451,1.29798
3627.44604,1.28840
3625.51758,1.28767
3623.58911,1.29442
3621.66064,1.30075
3619.73218,1.30178
3617.80371,1.29812
3615.87524,1.29886
3613.94678,1.30201
3612.01831,1.30303
3610.08984,1.30390
3608.16138,1.30323
3606.23291,1.30178
3604.30444,1.30450
3602.37598,1.30887
3600.44751,1.31044
3598.51904,1.31059
3596.59058,1.31163
3594.66211,1.31169
3592.73364,1.31215
3590.80518,1.31645
3588.87671,1.32065
3586.94824,1.31750
3585.01978,1.31390
3583.09131,1.31672
3581.16284,1.32057
3579.23438,1.32265
3577.30591,1.32388
3575.37744,1.32492
3573.44897,1.32626
3571.52051,1.32961
3569.59204,1.33442
3567.66357,1.33477
3565.73511,1.32851
3563.80664,1.32672
3561.87817,1.32996
3559.94971,1.33269
3558.02124,1.33428
3556.09277,1.33629
3554.16431,1.33813
3552.23584,1.33819
3550.30737,1.33826
3548.37891,1.34049
3546.45044,1.34181
3544.52197,1.34038
3542.59351,1.33977
3540.66504,1.34150
3538.73657,1.34406
3536.80811,1.34551
3534.87964,1.34584
3532.95117,1.34693
3531.02271,1.34880
3529.09424,1.34974
3527.16577,1.34960
3525.23730,1.34955
3523.30884,1.34927
3521.38037,1.34928
3519.45190,1.35063
3517.52344,1.35233
3515.59497,1.35358
3513.66650,1.35477
3511.73804,1.35589
3509.80957,1.35608
3507.88110,1.35604
3505.95264,1.35753
3504.02417,1.35898
3502.09570,1.35833
3500.16724,1.35809
3498.23877,1.35967
3496.31030,1.36088
3494.38184,1.36104
3492.45337,1.36151
3490.52490,1.36271
3488.59644,1.36370
3486.66797,1.36399
3484.73950,1.36432
3482.81104,1.36482
3480.88257,1.36492
3478.95410,1.36519
3477.02563,1.36607
3475.09717,1.36683
3473.16870,1.36715
3471.24023,1.36751
3469.31177,1.36810
3467.38330,1.36860
3465.45483,1.36896
3463.52637,1.36929
3461.59790,1.36939
3459.66943,1.36955
3457.74097,1.36994
3455.81250,1.37026
3453.88403,1.37061
3451.95557,1.37122
3450.02710,1.37219
3448.09863,1.37260
3446.17017,1.37178
3444.24170,1.37131
3442.31323,1.37171
3440.38477,1.37202
3438.45630,1.37218
3436.52783,1.37220
3434.59937,1.37190
3432.67090,1.37142
3430.74243,1.37081
3428.81396,1.37018
3426.88550,1.36969
3424.95703,1.36940
3423.02856,1.36917
3421.10010,1.36844
3419.17163,1.36718
3417.24316,1.36619
3415.31470,1.36552
3413.38623,1.36473
3411.45776,1.36379
3409.52930,1.36274
3407.60083,1.36163
3405.67236,1.36073
3403.74390,1.36008
3401.81543,1.35931
3399.88696,1.35822
3397.95850,1.35684
3396.03003,1.35548
3394.10156,1.35428
3392.17310,1.35252
3390.24463,1.35053
3388.31616,1.34935
3386.38770,1.34851
3384.45923,1.34715
3382.53076,1.34550
3380.60229,1.34394
3378.67383,1.34237
3376.74536,1.34071
3374.81689,1.33899
3372.88843,1.33727
3370.95996,1.33566
3369.03149,1.33410
3367.10303,1.33223
3365.17456,1.33004
3363.24609,1.32806
3361.31763,1.32639
3359.38916,1.32471
3357.46069,1.32303
3355.53223,1.32137
3353.60376,1.31966
3351.67529,1.31786
3349.74683,1.31592
3347.81836,1.31409
3345.88989,1.31259
3343.96143,1.31117
3342.03296,1.30960
3340.10449,1.30821
3338.17603,1.30697
3336.24756,1.30528
3334.31909,1.30327
3332.39063,1.30162
3330.46216,1.30045
3328.53369,1.29942
3326.60522,1.29830
3324.67676,1.29693
3322.74829,1.29539
3320.81982,1.29395
3318.89136,1.29272
3316.96289,1.29159
3315.03442,1.29057
3313.10596,1.28951
3311.17749,1.28818
3309.24902,1.28664
3307.32056,1.28529
3305.39209,1.28440
3303.46362,1.28377
3301.53516,1.28303
3299.60669,1.28212
3297.67822,1.28110
3295.74976,1.28014
3293.82129,1.27924
3291.89282,1.27817
3289.96436,1.27703
3288.03589,1.27617
3286.10742,1.27559
3284.17896,1.27487
3282.25049,1.27401
3280.32202,1.27334
3278.39355,1.27285
3276.46509,1.27224
3274.53662,1.27126
3272.60815,1.27011
3270.67969,1.26927
3268.75122,1.26872
3266.82275,1.26804
3264.89429,1.26728
3262.96582,1.26678
3261.03735,1.26626
3259.10889,1.26547
3257.18042,1.26464
3255.25195,1.26379
3253.32349,1.26274
3251.39502,1.26170
3249.46655,1.26086
3247.53809,1.26019
3245.60962,1.25938
3243.68115,1.25833
3241.75269,1.25746
3239.82422,1.25672
3237.89575,1.25568
3235.96729,1.25455
3234.03882,1.25369
3232.11035,1.25303
3230.18188,1.25226
3228.25342,1.25117
3226.32495,1.25000
3224.39648,1.24922
3222.46802,1.24866
3220.53955,1.24784
3218.61108,1.24683
3216.68262,1.24598
3214.75415,1.24514
3212.82568,1.24425
3210.89722,1.24351
3208.96875,1.24271
3207.04028,1.24175
3205.11182,1.24084
3203.18335,1.23993
3201.25488,1.23912
3199.32642,1.23842
3197.39795,1.23755
3195.46948,1.23651
3193.54102,1.23561
3191.61255,1.23483
3189.68408,1.23414
3187.75562,1.23346
3185.82715,1.23258
3183.89868,1.23163
3181.97021,1.23105
3180.04175,1.23054
3178.11328,1.22947
3176.18481,1.22824
3174.25635,1.22745
3172.32788,1.22687
3170.39941,1.22611
3168.47095,1.22526
3166.54248,1.22450
3164.61401,1.22379
3162.68555,1.22303
3160.75708,1.22227
3158.82861,1.22155
3156.90015,1.22089
3154.97168,1.22030
3153.04321,1.21978
3151.11475,1.21914
3149.18628,1.21836
3147.25781,1.21762
3145.32935,1.21682
3143.40088,1.21589
3141.47241,1.21512
3139.54395,1.21461
3137.61548,1.21417
3135.68701,1.21364
3133.75854,1.21291
3131.83008,1.21209
3129.90161,1.21151
3127.97314,1.21102
3126.04468,1.21033
3124.11621,1.20960
3122.18774,1.20884
3120.25928,1.20809
3118.33081,1.20756
3116.40234,1.20699
3114.47388,1.20622
3112.54541,1.20559
3110.61694,1.20518
3108.68848,1.20464
3106.76001,1.20395
3104.83154,1.20348
3102.90308,1.20312
3100.97461,1.20248
3099.04614,1.20173
3097.11768,1.20110
3095.18921,1.20041
3093.26074,1.19970
3091.33228,1.19915
3089.40381,1.19856
3087.47534,1.19792
3085.54688,1.19744
3083.61841,1.19711
3081.68994,1.19674
3079.76147,1.19616
3077.83301,1.19539
3075.90454,1.19471
3073.97607,1.19420
3072.04761,1.19371
3070.11914,1.19324
3068.19067,1.19280
3066.26221,1.19220
3064.33374,1.19142
3062.40527,1.19068
3060.47681,1.19013
3058.54834,1.18968
3056.61987,1.18908
3054.69141,1.18844
3052.76294,1.18812
3050.83447,1.18788
3048.90601,1.18727
3046.97754,1.18647
3045.04907,1.18581
3043.12061,1.18524
3041.19214,1.18475
3039.26367,1.18435
3037.33521,1.18390
3035.40674,1.18334
3033.47827,1.18282
3031.54980,1.18225
3029.62134,1.18162
3027.69287,1.18118
3025.76440,1.18087
3023.83594,1.18050
3021.90747,1.18013
3019.97900,1.17976
3018.05054,1.17941
3016.12207,1.17903
3014.19360,1.17857
3012.26514,1.17814
3010.33667,1.17781
3008.40820,1.17760
3006.47974,1.17745
3004.55127,1.17717
3002.62280,1.17676
3000.69434,1.17643
2998.76587,1.17621
2996.83740,1.17595
2994.90894,1.17559
2992.98047,1.17519
2991.05200,1.17488
2989.12354,1.17464
2987.19507,1.17442
2985.26660,1.17423
2983.33813,1.17405
2981.40967,1.17381
2979.48120,1.17352
2977.55273,1.17323
2975.62427,1.17303
2973.69580,1.17295
2971.76733,1.17313
2969.83887,1.17350
2967.91040,1.17373
2965.98193,1.17378
2964.05347,1.17378
2962.12500,1.17365
2960.19653,1.17337
2958.26807,1.17305
2956.33960,1.17271
2954.41113,1.17227
2952.48267,1.17183
2950.55420,1.17143
2948.62573,1.17100
2946.69727,1.17055
2944.76880,1.17019
2942.84033,1.16999
2940.91187,1.17008
2938.98340,1.17045
2937.05493,1.17087
2935.12646,1.17121
2933.19800,1.17159
2931.26953,1.17208
2929.34106,1.17245
2927.41260,1.17255
2925.48413,1.17242
2923.55566,1.17194
2921.62720,1.17107
2919.69873,1.17001
2917.77026,1.16881
2915.84180,1.16735
2913.91333,1.16571
2911.98486,1.16410
2910.05640,1.16264
2908.12793,1.16135
2906.19946,1.16019
2904.27100,1.15910
2902.34253,1.15814
2900.41406,1.15727
2898.48560,1.15636
2896.55713,1.15541
2894.62866,1.15453
2892.70020,1.15374
2890.77173,1.15294
2888.84326,1.15209
2886.91479,1.15135
2884.98633,1.15079
2883.05786,1.15030
2881.12939,1.14976
2879.20093,1.14925
2877.27246,1.14884
2875.34399,1.14845
2873.41553,1.14812
2871.48706,1.14779
2869.55859,1.14738
2867.63013,1.14693
2865.70166,1.14654
2863.77319,1.14618
2861.84473,1.14593
2859.91626,1.14585
2857.98779,1.14588
2856.05933,1.14578
2854.13086,1.14541
2852.20239,1.14474
2850.27393,1.14374
2848.34546,1.14251
2846.41699,1.14122
2844.48853,1.14004
2842.56006,1.13895
2840.63159,1.13787
2838.70313,1.13683
2836.77466,1.13589
2834.84619,1.13501
2832.91772,1.13411
2830.98926,1.13324
2829.06079,1.13242
2827.13232,1.13164
2825.20386,1.13097
2823.27539,1.13041
2821.34692,1.12980
2819.41846,1.12907
2817.48999,1.12838
2815.56152,1.12777
2813.63306,1.12719
2811.70459,1.12661
2809.77612,1.12601
2807.84766,1.12544
2805.91919,1.12493
2803.99072,1.12441
2802.06226,1.12382
2800.13379,1.12322
2798.20532,1.12273
2796.27686,1.12239
2794.34839,1.12201
2792.41992,1.12145
2790.49146,1.12084
2788.56299,1.12025
2786.63452,1.11966
2784.70605,1.11911
2782.77759,1.11861
2780.84912,1.11816
2778.92065,1.11771
2776.99219,1.11720
2775.06372,1.11659
2773.13525,1.11602
2771.20679,1.11557
2769.27832,1.11517
2767.34985,1.11473
2765.42139,1.11423
2763.49292,1.11364
2761.56445,1.11304
2759.63599,1.11256
2757.70752,1.11222
2755.77905,1.11184
2753.85059,1.11132
2751.92212,1.11073
2749.99365,1.11020
2748.06519,1.10971
2746.13672,1.10918
2744.20825,1.10861
2742.27979,1.10808
2740.35132,1.10765
2738.42285,1.10726
2736.49438,1.10683
2734.56592,1.10636
2732.63745,1.10589
2730.70898,1.10544
2728.78052,1.10493
2726.85205,1.10439
2724.92358,1.10392
2722.99512,1.10350
2721.06665,1.10303
2719.13818,1.10250
2717.20972,1.10197
2715.28125,1.10144
2713.35278,1.10089
2711.42432,1.10033
2709.49585,1.09976
2707.56738,1.09926
2705.63892,1.09878
2703.71045,1.09829
2701.78198,1.09784
2699.85352,1.09746
2697.92505,1.09703
2695.99658,1.09652
2694.06812,1.09603
2692.13965,1.09556
2690.21118,1.09506
2688.28271,1.09453
2686.35425,1.09399
2684.42578,1.09346
2682.49731,1.09298
2680.56885,1.09253
2678.64038,1.09204
2676.71191,1.09156
2674.78345,1.09115
2672.85498,1.09071
2670.92651,1.09020
2668.99805,1.08971
2667.06958,1.08924
2665.14111,1.08878
2663.21265,1.08829
2661.28418,1.08773
2659.35571,1.08718
2657.42725,1.08671
2655.49878,1.08624
2653.57031,1.08571
2651.64185,1.08521
2649.71338,1.08479
2647.78491,1.08434
2645.85645,1.08383
2643.92798,1.08334
2641.99951,1.08284
2640.07104,1.08228
2638.14258,1.08170
2636.21411,1.08121
2634.28564,1.08076
2632.35718,1.08028
2630.42871,1.07978
2628.50024,1.07932
2626.57178,1.07890
2624.64331,1.07851
2622.71484,1.07814
2620.78638,1.07768
2618.85791,1.07710
2616.92944,1.07656
2615.00098,1.07612
2613.07251,1.07566
2611.14404,1.07516
2609.21558,1.07463
2607.28711,1.07411
2605.35864,1.07361
2603.43018,1.07317
2601.50171,1.07278
2599.57324,1.07233
2597.64478,1.07179
2595.71631,1.07125
2593.78784,1.07073
2591.85938,1.07021
2589.93091,1.06967
2588.00244,1.06916
2586.07397,1.06870
2584.14551,1.06827
2582.21704,1.06788
2580.28857,1.06745
2578.36011,1.06696
2576.43164,1.06640
2574.50317,1.06582
2572.57471,1.06528
2570.64624,1.06487
2568.71777,1.06451
2566.78931,1.06409
2564.86084,1.06363
2562.93237,1.06315
2561.00391,1.06265
2559.07544,1.06212
2557.14697,1.06163
2555.21851,1.06117
2553.29004,1.06070
2551.36157,1.06020
2549.43311,1.05974
2547.50464,1.05930
2545.57617,1.05883
2543.64771,1.05835
2541.71924,1.05789
2539.79077,1.05742
2537.86230,1.05690
2535.93384,1.05638
2534.00537,1.05590
2532.07690,1.05545
2530.14844,1.05499
2528.21997,1.05452
2526.29150,1.05410
2524.36304,1.05371
2522.43457,1.05331
2520.50610,1.05285
2518.57764,1.05231
2516.64917,1.05181
2514.72070,1.05139
2512.79224,1.05097
2510.86377,1.05050
2508.93530,1.05002
2507.00684,1.04952
2505.07837,1.04899
2503.14990,1.04851
2501.22144,1.04809
2499.29297,1.04766
2497.36450,1.04721
2495.43604,1.04676
2493.50757,1.04633
2491.57910,1.04590
2489.65063,1.04545
2487.72217,1.04497
2485.79370,1.04446
2483.86523,1.04394
2481.93677,1.04343
2480.00830,1.04291
2478.07983,1.04238
2476.15137,1.04190
2474.22290,1.04147
2472.29443,1.04101
2470.36597,1.04048
2468.43750,1.03995
2466.50903,1.03952
2464.58057,1.03914
2462.65210,1.03871
2460.72363,1.03819
2458.79517,1.03770
2456.86670,1.03730
2454.93823,1.03693
2453.00977,1.03649
2451.08130,1.03595
2449.15283,1.03540
2447.22437,1.03489
2445.29590,1.03440
2443.36743,1.03392
2441.43896,1.03344
2439.51050,1.03293
2437.58203,1.03243
2435.65356,1.03202
2433.72510,1.03169
2431.79663,1.03133
2429.86816,1.03089
2427.93970,1.03039
2426.01123,1.02992
2424.08276,1.02948
2422.15430,1.02903
2420.22583,1.02855
2418.29736,1.02806
2416.36890,1.02755
2414.44043,1.02706
2412.51196,1.02665
2410.58350,1.02625
2408.65503,1.02581
2406.72656,1.02534
2404.79810,1.02487
2402.86963,1.02441
2400.94116,1.02396
2399.01270,1.02346
2397.08423,1.02295
2395.15576,1.02252
2393.22729,1.02216
2391.29883,1.02174
2389.37036,1.02120
2387.44189,1.02048
2385.51343,1.01939
2383.58496,1.01773
2381.65649,1.01546
2379.72803,1.01260
2377.79956,1.00913
2375.87109,1.00506
2373.94263,1.00036
2372.01416,0.99492
2370.08569,0.98888
2368.15723,0.98274
2366.22876,0.97698
2364.30029,0.97186
2362.37183,0.96771
2360.44336,0.96482
2358.51489,0.96349
2356.58643,0.96428
2354.65796,0.96723
2352.72949,0.97185
2350.80103,0.97831
2348.87256,0.98482
2346.94409,0.98741
2345.01563,0.98351
2343.08716,0.97715
2341.15869,0.97409
2339.23022,0.97362
2337.30176,0.97383
2335.37329,0.97428
2333.44482,0.97472
2331.51636,0.97454
2329.58789,0.97420
2327.65942,0.97488
2325.73096,0.97640
2323.80249,0.97766
2321.87402,0.97861
2319.94556,0.98011
2318.01709,0.98242
2316.08862,0.98475
2314.16016,0.98623
2312.23169,0.98687
2310.30322,0.98753
2308.37476,0.98869
2306.44629,0.99014
2304.51782,0.99143
2302.58936,0.99228
2300.66089,0.99279
2298.73242,0.99325
2296.80396,0.99369
2294.87549,0.99403
2292.94702,0.99435
2291.01855,0.99464
2289.09009,0.99484
2287.16162,0.99500
2285.23315,0.99515
2283.30469,0.99517
2281.37622,0.99493
2279.44775,0.99444
2277.51929,0.99384
2275.59082,0.99325
2273.66235,0.99272
2271.73389,0.99224
2269.80542,0.99179
2267.87695,0.99138
2265.94849,0.99103
2264.02002,0.99067
2262.09155,0.99025
2260.16309,0.98984
2258.23462,0.98950
2256.30615,0.98920
2254.37769,0.98888
2252.44922,0.98854
2250.52075,0.98820
2248.59229,0.98784
2246.66382,0.98743
2244.73535,0.98701
2242.80688,0.98664
2240.87842,0.98628
2238.94995,0.98590
2237.02148,0.98552
2235.09302,0.98516
2233.16455,0.98476
2231.23608,0.98429
2229.30762,0.98377
2227.37915,0.98328
2225.45068,0.98284
2223.52222,0.98243
2221.59375,0.98206
2219.66528,0.98169
2217.73682,0.98129
2215.80835,0.98085
2213.87988,0.98040
2211.95142,0.97998
2210.02295,0.97955
2208.09448,0.97907
2206.16602,0.97859
2204.23755,0.97817
2202.30908,0.97781
2200.38062,0.97746
2198.45215,0.97705
2196.52368,0.97659
2194.59521,0.97613
2192.66675,0.97570
2190.73828,0.97530
2188.80981,0.97493
2186.88135,0.97459
2184.95288,0.97418
2183.02441,0.97375
2181.09595,0.97334
2179.16748,0.97296
2177.23901,0.97256
2175.31055,0.97213
2173.38208,0.97170
2171.45361,0.97133
2169.52515,0.97100
2167.59668,0.97065
2165.66821,0.97023
2163.73975,0.96982
2161.81128,0.96941
2159.88281,0.96901
2157.95435,0.96862
2156.02588,0.96823
2154.09741,0.96782
2152.16895,0.96746
2150.24048,0.96710
2148.31201,0.96671
2146.38354,0.96634
2144.45508,0.96598
2142.52661,0.96561
2140.59814,0.96524
2138.66968,0.96488
2136.74121,0.96449
2134.81274,0.96409
2132.88428,0.96370
2130.95581,0.96328
2129.02734,0.96288
2127.09888,0.96255
2125.17041,0.96222
2123.24194,0.96179
2121.31348,0.96134
2119.38501,0.96098
2117.45654,0.96069
2115.52808,0.96030
2113.59961,0.95981
2111.67114,0.95939
2109.74268,0.95906
2107.81421,0.95878
2105.88574,0.95848
2103.95728,0.95813
2102.02881,0.95772
2100.10034,0.95735
2098.17188,0.95705
2096.24341,0.95677
2094.31494,0.95648
2092.38647,0.95612
2090.45801,0.95562
2088.52954,0.95510
2086.60107,0.95474
2084.67261,0.95450
2082.74414,0.95422
2080.81567,0.95387
2078.88721,0.95349
2076.95874,0.95314
2075.03027,0.95278
2073.10181,0.95238
2071.17334,0.95199
2069.24487,0.95174
2067.31641,0.95155
2065.38794,0.95111
2063.45947,0.95054
2061.53101,0.95019
2059.60254,0.94991
2057.67407,0.94954
2055.74561,0.94919
2053.81714,0.94889
2051.88867,0.94860
2049.96021,0.94822
2048.03174,0.94779
2046.10327,0.94743
2044.17480,0.94718
2042.24634,0.94684
2040.31787,0.94633
2038.38940,0.94597
2036.46094,0.94578
2034.53247,0.94557
2032.60400,0.94531
2030.67554,0.94509
2028.74707,0.94491
2026.81860,0.94464
2024.89014,0.94433
2022.96167,0.94409
2021.03320,0.94403
2019.10474,0.94391
2017.17627,0.94326
2015.24780,0.94253
2013.31934,0.94239
2011.39087,0.94242
2009.46240,0.94217
2007.53394,0.94177
2005.60547,0.94137
2003.67700,0.94100
2001.74854,0.94068
1999.82007,0.94032
1997.89160,0.93996
1995.96313,0.93990
1994.03467,0.93989
1992.10620,0.93906
1990.17773,0.93794
1988.24927,0.93751
1986.32080,0.93734
1984.39233,0.93718
1982.46387,0.93699
1980.53540,0.93671
1978.60693,0.93638
1976.67847,0.93599
1974.75000,0.93559
1972.82153,0.93529
1970.89307,0.93531
1968.96460,0.93528
1967.03613,0.93437
1965.10767,0.93329
1963.17920,0.93306
1961.25073,0.93306
1959.32227,0.93286
1957.39380,0.93269
1955.46533,0.93238
1953.53687,0.93192
1951.60840,0.93156
1949.67993,0.93143
1947.75146,0.93148
1945.82300,0.93168
1943.89453,0.93128
1941.96606,0.92960
1940.03760,0.92849
1938.10913,0.92882
1936.18066,0.92913
1934.25220,0.92891
1932.32373,0.92845
1930.39526,0.92804
1928.46680,0.92782
1926.53833,0.92802
1924.60986,0.92802
1922.68140,0.92694
1920.75293,0.92622
1918.82446,0.92586
1916.89600,0.92454
1914.96753,0.92403
1913.03906,0.92485
1911.11060,0.92510
1909.18213,0.92417
1907.25366,0.92319
1905.32520,0.92300
1903.39673,0.92299
1901.46826,0.92272
1899.53979,0.92254
1897.61133,0.92252
1895.68286,0.92204
1893.75439,0.92147
1891.82593,0.92159
1889.89746,0.92083
1887.96899,0.91918
1886.04053,0.91879
1884.11206,0.91895
1882.18359,0.91876
1880.25513,0.91846
1878.32666,0.91806
1876.39819,0.91768
1874.46973,0.91773
1872.54126,0.91874
1870.61279,0.91947
1868.68433,0.91701
1866.75586,0.91363
1864.82739,0.91360
1862.89893,0.91493
1860.97046,0.91543
1859.04199,0.91518
1857.11353,0.91481
1855.18506,0.91467
1853.25659,0.91471
1851.32813,0.91503
1849.39966,0.91561
1847.47119,0.91634
1845.54272,0.91585
1843.61426,0.91261
1841.68579,0.91103
1839.75732,0.91257
1837.82886,0.91360
1835.90039,0.91331
1833.97192,0.91387
1832.04346,0.91518
1830.11499,0.91417
1828.18652,0.91196
1826.25806,0.91164
1824.32959,0.91102
1822.40112,0.91045
1820.47266,0.91123
1818.54419,0.91175
1816.61572,0.91150
1814.68726,0.91166
1812.75879,0.91201
1810.83032,0.91106
1808.90186,0.90968
1806.97339,0.90968
1805.04492,0.91073
1803.11646,0.91161
1801.18799,0.91088
1799.25952,0.90935
1797.33105,0.90961
1795.40259,0.91148
1793.47412,0.91197
1791.54565,0.90884
1789.61719,0.90738
1787.68872,0.90960
1785.76025,0.91155
1783.83179,0.91208
1781.90332,0.91239
1779.97485,0.91226
1778.04639,0.91275
1776.11792,0.91501
1774.18945,0.91685
1772.26099,0.91457
1770.33252,0.91113
1768.40405,0.91084
1766.47559,0.91198
1764.54712,0.91391
1762.61865,0.91437
1760.69019,0.91250
1758.76172,0.91186
1756.83325,0.91147
1754.90479,0.91145
1752.97632,0.91319
1751.04785,0.91313
1749.11938,0.90928
1747.19092,0.90694
1745.26245,0.90738
1743.33398,0.90827
1741.40552,0.90825
1739.47705,0.90717
1737.54858,0.90815
1735.62012,0.91030
1733.69165,0.90653
1731.76318,0.90161
1729.83472,0.90206
1727.90625,0.90360
1725.97778,0.90520
1724.04932,0.90614
1722.12085,0.90733
1720.19238,0.91017
1718.26392,0.91059
1716.33545,0.90433
1714.40698,0.90112
1712.47852,0.90311
1710.55005,0.90597
1708.62158,0.90840
1706.69312,0.90894
1704.76465,0.90810
1702.83618,0.90969
1700.90771,0.91062
1698.97925,0.90692
1697.05078,0.90401
1695.12231,0.90235
1693.19385,0.90393
1691.26538,0.90765
1689.33691,0.90997
1687.40845,0.91226
1685.47998,0.91369
1683.55151,0.90788
1681.62305,0.90480
1679.69458,0.90820
1677.76611,0.91223
1675.83765,0.91384
1673.90918,0.91369
1671.98071,0.91538
1670.05225,0.91564
1668.12378,0.91374
1666.19531,0.91626
1664.26685,0.92010
1662.33838,0.92052
1660.40991,0.92050
1658.48145,0.92389
1656.55298,0.92941
1654.62451,0.93283
1652.69604,0.92568
1650.76758,0.92391
1648.83911,0.92958
1646.91064,0.93011
1644.98218,0.92759
1643.05371,0.93039
1641.12524,0.93478
1639.19678,0.93891
1637.26831,0.94082
1635.33984,0.93627
1633.41138,0.93415
1631.48291,0.93775
1629.55444,0.94066
1627.62598,0.94076
1625.69751,0.94041
1623.76904,0.93916
1621.84058,0.93716
1619.91211,0.93856
1617.98364,0.93968
1616.05518,0.93506
1614.12671,0.93210
1612.19824,0.93331
1610.26978,0.93368
1608.34131,0.93199
1606.41284,0.93030
1604.48438,0.92939
1602.55591,0.92820
1600.62744,0.92679
1598.69897,0.92601
1596.77051,0.92532
1594.84204,0.92388
1592.91357,0.92225
1590.98511,0.92105
1589.05664,0.91997
1587.12817,0.91892
1585.19971,0.91798
1583.27124,0.91703
1581.34277,0.91662
1579.41431,0.91754
1577.48584,0.91694
1575.55737,0.91106
1573.62891,0.90884
1571.70044,0.91119
1569.77197,0.91012
1567.84351,0.90653
1565.91504,0.90620
1563.98657,0.90772
1562.05811,0.91116
1560.12964,0.91316
1558.20117,0.90196
1556.27271,0.89603
1554.34424,0.89823
1552.41577,0.89985
1550.48730,0.90021
1548.55884,0.90047
1546.63037,0.90247
1544.70190,0.90470
1542.77344,0.90462
1540.84497,0.89864
1538.91650,0.89028
1536.98804,0.89249
1535.05957,0.89677
1533.13110,0.89614
1531.20264,0.89482
1529.27417,0.89705
1527.34570,0.89857
1525.41724,0.89834
1523.48877,0.89854
1521.56030,0.89633
1519.63184,0.89376
1517.70337,0.89371
1515.77490,0.89337
1513.84644,0.89452
1511.91797,0.89767
1509.98950,0.90120
1508.06104,0.90061
1506.13257,0.89049
1504.20410,0.88923
1502.27563,0.89408
1500.34717,0.89782
1498.41870,0.89806
1496.49023,0.89515
1494.56177,0.89501
1492.63330,0.89849
1490.70483,0.90042
1488.77637,0.89734
1486.84790,0.89535
1484.91943,0.89723
1482.99097,0.89971
1481.06250,0.90130
1479.13403,0.90296
1477.20557,0.90527
1475.27710,0.90686
1473.34863,0.90547
1471.42017,0.90322
1469.49170,0.90559
1467.56323,0.90993
1465.63477,0.91176
1463.70630,0.91126
1461.77783,0.91356
1459.84937,0.91794
1457.92090,0.91786
1455.99243,0.91148
1454.06396,0.91157
1452.13550,0.91505
1450.20703,0.91766
1448.27856,0.91814
1446.35010,0.91757
1444.42163,0.91822
1442.49316,0.91975
1440.56470,0.92174
1438.63623,0.92355
1436.70776,0.92235
1434.77930,0.92043
1432.85083,0.92204
1430.92236,0.92384
1428.99390,0.92412
1427.06543,0.92517
1425.13696,0.92667
1423.20850,0.92765
1421.28003,0.92904
1419.35156,0.92883
1417.42310,0.92643
1415.49463,0.92687
1413.56616,0.92897
1411.63770,0.93020
1409.70923,0.93086
1407.78076,0.93195
1405.85229,0.93257
1403.92383,0.93242
1401.99536,0.93352
1400.06689,0.93509
1398.13843,0.93542
1396.20996,0.93511
1394.28149,0.93459
1392.35303,0.93542
1390.42456,0.93808
1388.49609,0.94022
1386.56763,0.94071
1384.63916,0.94180
1382.71069,0.94388
1380.78223,0.94554
1378.85376,0.94674
1376.92529,0.94788
1374.99683,0.94794
1373.06836,0.94704
1371.13989,0.94747
1369.21143,0.94870
1367.28296,0.94979
1365.35449,0.95129
1363.42603,0.95193
1361.49756,0.95102
1359.56909,0.95121
1357.64063,0.95268
1355.71216,0.95388
1353.78369,0.95465
1351.85522,0.95560
1349.92676,0.95661
1347.99829,0.95745
1346.06982,0.95839
1344.14136,0.95978
1342.21289,0.96150
1340.28442,0.96236
1338.35596,0.96209
1336.42749,0.96263
1334.49902,0.96430
1332.57056,0.96602
1330.64209,0.96738
1328.71362,0.96866
1326.78516,0.97012
1324.85669,0.97174
1322.92822,0.97343
1320.99976,0.97504
1319.07129,0.97630
1317.14282,0.97749
1315.21436,0.97901
1313.28589,0.98052
1311.35742,0.98193
1309.42896,0.98349
1307.50049,0.98505
1305.57202,0.98661
1303.64355,0.98835
1301.71509,0.99017
1299.78662,0.99194
1297.85815,0.99365
1295.92969,0.99541
1294.00122,0.99731
1292.07275,0.99942
1290.14429,1.00161
1288.21582,1.00370
1286.28735,1.00573
1284.35889,1.00792
1282.43042,1.01028
1280.50195,1.01271
1278.57349,1.01517
1276.64502,1.01767
1274.71655,1.02026
1272.78809,1.02293
1270.85962,1.02568
1268.93115,1.02862
1267.00269,1.03177
1265.07422,1.03500
1263.14575,1.03821
1261.21729,1.04118
1259.28882,1.04386
1257.36035,1.04664
1255.43188,1.04966
1253.50342,1.05278
1251.57495,1.05596
1249.64648,1.05932
1247.71802,1.06296
1245.78955,1.06678
1243.86108,1.07069
1241.93262,1.07469
1240.00415,1.07879
1238.07568,1.08302
1236.14722,1.08747
1234.21875,1.09211
1232.29028,1.09687
1230.36182,1.10173
1228.43335,1.10669
1226.50488,1.11177
1224.57642,1.11707
1222.64795,1.12267
1220.71948,1.12864
1218.79102,1.13495
1216.86255,1.14160
1214.93408,1.14865
1213.00562,1.15613
1211.07715,1.16394
1209.14868,1.17204
1207.22021,1.18036
1205.29175,1.18883
1203.36328,1.19760
1201.43481,1.20676
1199.50635,1.21601
1197.57788,1.22530
1195.64941,1.23483
1193.72095,1.24459
1191.79248,1.25455
1189.86401,1.26476
1187.93555,1.27516
1186.00708,1.28564
1184.07861,1.29635
1182.15015,1.30726
1180.22168,1.31823
1178.29321,1.32925
1176.36475,1.34019
1174.43628,1.35091
1172.50781,1.36141
1170.57935,1.37186
1168.65088,1.38227
1166.72241,1.39247
1164.79395,1.40250
1162.86548,1.41236
1160.93701,1.42195
1159.00854,1.43127
1157.08008,1.44064
1155.15161,1.45000
1153.22314,1.45916
1151.29468,1.46824
1149.36621,1.47726
1147.43774,1.48648
1145.50928,1.49598
1143.58081,1.50567
1141.65234,1.51535
1139.72388,1.52438
1137.79541,1.53247
1135.86694,1.54048
1133.93848,1.54958
1132.01001,1.56025
1130.08154,1.57252
1128.15308,1.58608
1126.22461,1.60027
1124.29614,1.61422
1122.36768,1.62689
1120.43921,1.63742
1118.51074,1.64517
1116.58228,1.65082
1114.65381,1.65620
1112.72534,1.66316
1110.79688,1.67251
1108.86841,1.68389
1106.93994,1.69763
1105.01147,1.71389
1103.08301,1.73215
1101.15454,1.75174
1099.22607,1.77214
1097.29761,1.79301
1095.36914,1.81345
1093.44067,1.83229
1091.51221,1.84881
1089.58374,1.86402
1087.65527,1.87840
1085.72681,1.89089
1083.79834,1.90177
1081.86987,1.91291
1079.94141,1.92546
1078.01294,1.93795
1076.08447,1.94924
1074.15601,1.95975
1072.22754,1.97032
1070.29907,1.98119
1068.37061,1.99143
1066.44214,2.00127
1064.51367,2.01059
1062.58521,2.01863
1060.65674,2.02600
1058.72827,2.03327
1056.79980,2.03867
1054.87134,2.04084
1052.94287,2.04212
1051.01440,2.04356
1049.08594,2.04310
1047.15747,2.03941
1045.22900,2.03478
1043.30054,2.03203
1041.37207,2.03228
1039.44360,2.03638
1037.51514,2.04355
1035.58667,2.05297
1033.65820,2.06399
1031.72974,2.07572
1029.80127,2.08861
1027.87280,2.10310
1025.94434,2.11909
1024.01587,2.13630
1022.08740,2.15470
1020.15894,2.17354
1018.23047,2.19196
1016.30200,2.21046
1014.37354,2.22971
1012.44507,2.24932
1010.51660,2.26833
1008.58813,2.28771
1006.65967,2.30780
1004.73120,2.32652
1002.80273,2.34218
1000.87427,2.35473
998.94580,2.36480
997.01733,2.37252
995.08887,2.37893
993.16040,2.38567
991.23193,2.39276
989.30347,2.39855
987.37500,2.40462
985.44653,2.41446
983.51807,2.42512
981.58960,2.43154
979.66113,2.43548
977.73267,2.44285
975.80420,2.45267
973.87573,2.45833
971.94727,2.45708
970.01880,2.44589
968.09033,2.42225
966.16187,2.39006
964.23340,2.35345
962.30493,2.31493
960.37646,2.27951
958.44800,2.25205
956.51953,2.23625
954.59106,2.23927
952.66260,2.26617
950.73413,2.30885
948.80566,2.34701
946.87720,2.36409
944.94873,2.36051
943.02026,2.34811
941.09180,2.33695
939.16333,2.32912
937.23486,2.32462
935.30640,2.32535
933.37793,2.33019
931.44946,2.33709
929.52100,2.34678
927.59253,2.35894
925.66406,2.37106
923.73560,2.38071
921.80713,2.38726
919.87866,2.39161
917.95020,2.39367
916.02173,2.39313
914.09326,2.39304
912.16479,2.39697
910.23633,2.40363
908.30786,2.41138
906.37939,2.42292
904.45093,2.44149
902.52246,2.46690
900.59399,2.49575
898.66553,2.52471
896.73706,2.55467
894.80859,2.58942
892.88013,2.62760
890.95166,2.66589
889.02319,2.70296
887.09473,2.73068
885.16626,2.74441
883.23779,2.74576
881.30933,2.73294
879.38086,2.70695
877.45239,2.67195
875.52393,2.62785
873.59546,2.57533
871.66699,2.51944
869.73853,2.46297
867.81006,2.40856
865.88159,2.35769
863.95313,2.30829
862.02466,2.25886
860.09619,2.21023
858.16772,2.16323
856.23926,2.11664
854.31079,2.06896
852.38232,2.02002
850.45386,1.97138
848.52539,1.92476
846.59692,1.88352
844.66846,1.85513
842.73999,1.84543
840.81152,1.85274
838.88306,1.86544
836.95459,1.86646
835.02612,1.84585
833.09766,1.80712
831.16919,1.75977
829.24072,1.71027
827.31226,1.66224
825.38379,1.61736
823.45532,1.57572
821.52686,1.53719
819.59839,1.50158
817.66992,1.46833
815.74146,1.43683
813.81299,1.40759
811.88452,1.38102
809.95605,1.35661
808.02759,1.33389
806.09912,1.31274
804.17065,1.29304
802.24219,1.27447
800.31372,1.25687
798.38525,1.23979
796.45679,1.22299
794.52832,1.20673
792.59985,1.19090
790.67139,1.17524
788.74292,1.15983
786.81445,1.14498
784.88599,1.13064
782.95752,1.11663
781.02905,1.10305
779.10059,1.08992
777.17212,1.07703
775.24365,1.06423
773.31519,1.05203
771.38672,1.04088
769.45825,1.03055
767.52979,1.02061
765.60132,1.01101
763.67285,1.00194
761.74438,0.99330
759.81592,0.98493
757.88745,0.97675
755.95898,0.96887
754.03052,0.96155
752.10205,0.95526
750.17358,0.95062
748.24512,0.94804
746.31665,0.94741
744.38818,0.94754
742.45972,0.94709
740.53125,0.94623
738.60278,0.94651
736.67432,0.94866
734.74585,0.95172
732.81738,0.95453
730.88892,0.95713
728.96045,0.95983
727.03198,0.96114
725.10352,0.95833
723.17505,0.95011
721.24658,0.93752
719.31812,0.92358
717.38965,0.91105
715.46118,0.90020
713.53271,0.89052
711.60425,0.88227
709.67578,0.87565
707.74731,0.87041
705.81885,0.86614
703.89038,0.86276
701.96191,0.86048
700.03345,0.85952
698.10498,0.86012
696.17651,0.86259
694.24805,0.86725
692.31958,0.87408
690.39111,0.88232
688.46265,0.89047
686.53418,0.89692
684.60571,0.90091
682.67725,0.90297
680.74878,0.90434
678.82031,0.90548
676.89185,0.90524
674.96338,0.90241
673.03491,0.89737
671.10645,0.89110
669.17798,0.88483
667.24951,0.88589
665.32104,0.89453
663.39258,0.90448
661.46411,0.91688
659.53564,0.93316
657.60718,0.95352
655.67871,0.97761
653.75024,1.00457
651.82178,1.03308
649.89331,1.06189
647.96484,1.08966
646.03638,1.11422
644.10791,1.13288
642.17944,1.14337
640.25098,1.14577
638.32251,1.14248
636.39404,1.13718
634.46558,1.13259
632.53711,1.13039
630.60864,1.13172
628.68018,1.13706
626.75171,1.14671
624.82324,1.16107
622.89478,1.18047
620.96631,1.20405
619.03784,1.23128
617.10938,1.26228
615.18091,1.29539
613.25244,1.32808
611.32397,1.35938
609.39551,1.38983
607.46704,1.41904
605.53857,1.44594
603.61011,1.46984
601.68164,1.49094
599.75317,1.50937
597.82471,1.52379
595.89624,1.53377
593.96777,1.53714
592.03931,1.53124
590.11084,1.51716
588.18237,1.49751
586.25391,1.47260
584.32544,1.44456
582.39697,1.41827
580.46851,1.39566
578.54004,1.37856
576.61157,1.36809
574.68311,1.36444
572.75464,1.36828
570.82617,1.37925
568.89771,1.39599
566.96924,1.41619
565.04077,1.43819
563.11230,1.46092
561.18384,1.48405
559.25537,1.50796
557.32690,1.53296
555.39844,1.56159
553.46997,1.59624
551.54150,1.63660
549.61304,1.68199
547.68457,1.73311
545.75610,1.78757
543.82764,1.83621
541.89917,1.87371
539.97070,1.90353
538.04224,1.92810
536.11377,1.94417
534.18530,1.95403
532.25684,1.96607
530.32837,1.98195
528.39990,1.99908
526.47144,2.01775
524.54297,2.04378
522.61450,2.07623
520.68604,2.10687
518.75757,2.13280
516.82910,2.15413
514.90063,2.17197
512.97217,2.18831
511.04370,2.20218
509.11523,2.20817
507.18677,2.21193
505.25830,2.22241
503.32983,2.23183
501.40137,2.22939
499.47290,2.21783
497.54443,2.20455
495.61597,2.18448
493.68750,2.14872
491.75903,2.09866
489.83057,2.04628
487.90210,1.99635
485.97363,1.94223
484.04517,1.88517
482.11670,1.83334
480.18823,1.78773
478.25977,1.74763
476.33130,1.71645
474.40283,1.69376
472.47437,1.67495
470.54590,1.66266
468.61743,1.65801
466.68896,1.65441
464.76050,1.64984
462.83203,1.64743
460.90356,1.64742
458.97510,1.64702
457.04663,1.64417
455.11816,1.63939
453.18970,1.63397
451.26123,1.62904
449.33276,1.62525
447.40430,1.62183
445.47583,1.62020
443.54736,1.62476
441.61890,1.63921
439.69043,1.66071
437.76196,1.68657
435.83350,1.71874
433.90503,1.75341
431.97656,1.78635
430.04810,1.82089
428.11963,1.85496
426.19116,1.87721
424.26270,1.89082
422.33423,1.91734
420.40576,1.96412
418.47729,2.02019
416.54883,2.05365
414.62036,2.08247
412.69189,2.14288
410.76343,2.21151
408.83496,2.22759
406.90649,2.20165
404.97803,2.16887
403.04956,2.14426
401.12109,2.12420
399.19263,2.07708
397.26416,1.99218
395.33569,1.95654
393.40723,1.93434
391.47876,1.87865
389.55029,1.81250
387.62183,1.76392
385.69336,1.73659
383.76489,1.71371
381.83643,1.69769
379.90796,1.69330
377.97949,1.68205
376.05103,1.62887
374.12256,1.57123
372.19409,1.54165
370.26563,1.51560
368.33716,1.53198
366.40869,1.59172
364.48022,1.62874
362.55176,1.61834
360.62329,1.60895
358.69482,1.46289
356.76636,1.23535
354.83789,1.16156
352.90942,1.55779
350.98096,1.32726
349.05249,1.36051
347.12402,1.51062
345.19556,1.06187
343.26709,0.88333
341.33862,0.95563
339.41016,1.03587
337.48169,0.76167
335.55322,0.48735
333.62476,0.41495
331.69629,0.59321
329.76782,0.97106
327.83936,0.82598
325.91089,0.63286
323.98242,0.59480
322.05396,0.64762
320.12549,0.62651
318.19702,0.58845
316.26855,0.55767
314.34009,0.40838
312.41162,0.39456
310.48315,0.53167
308.55469,0.51443
306.62622,0.88017
304.69775,0.68669
302.76929,0.52945
300.84082,0.49980
