# 25 FEB 2015 - B.L. de Vries
# Shalke, DIO, Sample 4, Take 1
# m = 1.8 mgr, KBr = 577 mgr
# Signal = 8500
# Resolution / sample scan time / bg scan time / range = 4 / 64 / 64 / 4000-300
# Source: glow-bar, Machine: Equinox 55, DTGS
# k(cm-1), absorbance
3996.41355,0.63999
3994.48478,0.63965
3992.55601,0.63931
3990.62724,0.63894
3988.69847,0.63857
3986.76970,0.63832
3984.84093,0.63810
3982.91215,0.63776
3980.98338,0.63735
3979.05461,0.63702
3977.12584,0.63674
3975.19707,0.63637
3973.26830,0.63595
3971.33953,0.63558
3969.41076,0.63524
3967.48199,0.63491
3965.55322,0.63465
3963.62444,0.63439
3961.69567,0.63398
3959.76690,0.63355
3957.83813,0.63323
3955.90936,0.63292
3953.98059,0.63268
3952.05182,0.63254
3950.12305,0.63223
3948.19428,0.63161
3946.26550,0.63121
3944.33673,0.63106
3942.40796,0.63051
3940.47919,0.62987
3938.55042,0.62969
3936.62165,0.62979
3934.69288,0.62986
3932.76411,0.62944
3930.83534,0.62849
3928.90657,0.62797
3926.97779,0.62803
3925.04902,0.62778
3923.12025,0.62722
3921.19148,0.62705
3919.26271,0.62688
3917.33394,0.62606
3915.40517,0.62516
3913.47640,0.62489
3911.54763,0.62493
3909.61886,0.62505
3907.69008,0.62551
3905.76131,0.62575
3903.83254,0.62486
3901.90377,0.62342
3899.97500,0.62221
3898.04623,0.62145
3896.11746,0.62171
3894.18869,0.62256
3892.25992,0.62230
3890.33115,0.62111
3888.40237,0.62115
3886.47360,0.62143
3884.54483,0.62053
3882.61606,0.61998
3880.68729,0.61936
3878.75852,0.61843
3876.82975,0.61879
3874.90098,0.61937
3872.97221,0.61924
3871.04344,0.61857
3869.11466,0.61717
3867.18589,0.61670
3865.25712,0.61690
3863.32835,0.61604
3861.39958,0.61519
3859.47081,0.61556
3857.54204,0.61689
3855.61327,0.61800
3853.68450,0.61563
3851.75572,0.61172
3849.82695,0.61142
3847.89818,0.61271
3845.96941,0.61376
3844.04064,0.61402
3842.11187,0.61380
3840.18310,0.61348
3838.25433,0.61232
3836.32556,0.61085
3834.39679,0.61035
3832.46801,0.61015
3830.53924,0.60984
3828.61047,0.60984
3826.68170,0.60982
3824.75293,0.61012
3822.82416,0.61060
3820.89539,0.60927
3818.96662,0.60786
3817.03785,0.60758
3815.10908,0.60637
3813.18030,0.60573
3811.25153,0.60658
3809.32276,0.60754
3807.39399,0.60705
3805.46522,0.60610
3803.53645,0.60633
3801.60768,0.60550
3799.67891,0.60383
3797.75014,0.60354
3795.82137,0.60320
3793.89259,0.60271
3791.96382,0.60279
3790.03505,0.60287
3788.10628,0.60278
3786.17751,0.60252
3784.24874,0.60199
3782.31997,0.60187
3780.39120,0.60171
3778.46243,0.60066
3776.53366,0.59987
3774.60488,0.60008
3772.67611,0.60060
3770.74734,0.60035
3768.81857,0.59929
3766.88980,0.59856
3764.96103,0.59815
3763.03226,0.59820
3761.10349,0.59861
3759.17472,0.59809
3757.24594,0.59727
3755.31717,0.59777
3753.38840,0.59882
3751.45963,0.59803
3749.53086,0.59575
3747.60209,0.59567
3745.67332,0.59608
3743.74455,0.59417
3741.81578,0.59333
3739.88701,0.59491
3737.95823,0.59649
3736.02946,0.59600
3734.10069,0.59372
3732.17192,0.59206
3730.24315,0.59200
3728.31438,0.59275
3726.38561,0.59300
3724.45684,0.59242
3722.52807,0.59174
3720.59930,0.59115
3718.67052,0.59084
3716.74175,0.59120
3714.81298,0.59219
3712.88421,0.59260
3710.95544,0.59099
3709.02667,0.58930
3707.09790,0.58925
3705.16913,0.59011
3703.24036,0.59060
3701.31159,0.58994
3699.38281,0.58939
3697.45404,0.58972
3695.52527,0.59039
3693.59650,0.59138
3691.66773,0.59239
3689.73896,0.59192
3687.81019,0.59026
3685.88142,0.59000
3683.95265,0.59106
3682.02388,0.59230
3680.09510,0.59345
3678.16633,0.59461
3676.23756,0.59411
3674.30879,0.59198
3672.38002,0.59193
3670.45125,0.59214
3668.52248,0.59090
3666.59371,0.59080
3664.66494,0.59183
3662.73617,0.59270
3660.80739,0.59345
3658.87862,0.59432
3656.94985,0.59455
3655.02108,0.59448
3653.09231,0.59590
3651.16354,0.59777
3649.23477,0.59700
3647.30600,0.59500
3645.37723,0.59516
3643.44845,0.59661
3641.51968,0.59795
3639.59091,0.59892
3637.66214,0.59996
3635.73337,0.60114
3633.80460,0.60247
3631.87583,0.60423
3629.94706,0.60530
3628.01829,0.60428
3626.08952,0.60423
3624.16074,0.60612
3622.23197,0.60831
3620.30320,0.60961
3618.37443,0.60978
3616.44566,0.61042
3614.51689,0.61183
3612.58812,0.61308
3610.65935,0.61431
3608.73058,0.61544
3606.80181,0.61627
3604.87303,0.61763
3602.94426,0.61956
3601.01549,0.62125
3599.08672,0.62264
3597.15795,0.62415
3595.22918,0.62554
3593.30041,0.62682
3591.37164,0.62864
3589.44287,0.63076
3587.51410,0.63191
3585.58532,0.63245
3583.65655,0.63383
3581.72778,0.63561
3579.79901,0.63716
3577.87024,0.63850
3575.94147,0.63980
3574.01270,0.64113
3572.08393,0.64279
3570.15516,0.64480
3568.22639,0.64621
3566.29761,0.64635
3564.36884,0.64675
3562.44007,0.64810
3560.51130,0.64951
3558.58253,0.65064
3556.65376,0.65183
3554.72499,0.65313
3552.79622,0.65427
3550.86745,0.65530
3548.93867,0.65664
3547.00990,0.65794
3545.08113,0.65874
3543.15236,0.65949
3541.22359,0.66060
3539.29482,0.66193
3537.36605,0.66315
3535.43728,0.66416
3533.50851,0.66523
3531.57974,0.66652
3529.65096,0.66780
3527.72219,0.66890
3525.79342,0.67000
3523.86465,0.67104
3521.93588,0.67198
3520.00711,0.67303
3518.07834,0.67420
3516.14957,0.67540
3514.22080,0.67664
3512.29203,0.67785
3510.36325,0.67886
3508.43448,0.67978
3506.50571,0.68093
3504.57694,0.68216
3502.64817,0.68304
3500.71940,0.68379
3498.79063,0.68479
3496.86186,0.68580
3494.93309,0.68665
3493.00432,0.68748
3491.07554,0.68840
3489.14677,0.68931
3487.21800,0.69013
3485.28923,0.69100
3483.36046,0.69192
3481.43169,0.69273
3479.50292,0.69345
3477.57415,0.69427
3475.64538,0.69512
3473.71661,0.69591
3471.78783,0.69672
3469.85906,0.69761
3467.93029,0.69848
3466.00152,0.69923
3464.07275,0.69991
3462.14398,0.70056
3460.21521,0.70118
3458.28644,0.70178
3456.35767,0.70235
3454.42889,0.70287
3452.50012,0.70339
3450.57135,0.70395
3448.64258,0.70445
3446.71381,0.70467
3444.78504,0.70474
3442.85627,0.70483
3440.92750,0.70488
3438.99873,0.70485
3437.06996,0.70474
3435.14118,0.70449
3433.21241,0.70412
3431.28364,0.70364
3429.35487,0.70307
3427.42610,0.70239
3425.49733,0.70166
3423.56856,0.70088
3421.63979,0.69994
3419.71102,0.69881
3417.78225,0.69768
3415.85347,0.69661
3413.92470,0.69549
3411.99593,0.69424
3410.06716,0.69291
3408.13839,0.69153
3406.20962,0.69014
3404.28085,0.68873
3402.35208,0.68730
3400.42331,0.68586
3398.49454,0.68436
3396.56576,0.68278
3394.63699,0.68120
3392.70822,0.67957
3390.77945,0.67785
3388.85068,0.67610
3386.92191,0.67432
3384.99314,0.67243
3383.06437,0.67043
3381.13560,0.66835
3379.20683,0.66619
3377.27805,0.66391
3375.34928,0.66155
3373.42051,0.65910
3371.49174,0.65658
3369.56297,0.65402
3367.63420,0.65141
3365.70543,0.64875
3363.77666,0.64607
3361.84789,0.64341
3359.91912,0.64079
3357.99034,0.63821
3356.06157,0.63567
3354.13280,0.63316
3352.20403,0.63072
3350.27526,0.62837
3348.34649,0.62608
3346.41772,0.62382
3344.48895,0.62159
3342.56018,0.61941
3340.63140,0.61727
3338.70263,0.61520
3336.77386,0.61318
3334.84509,0.61118
3332.91632,0.60922
3330.98755,0.60734
3329.05878,0.60550
3327.13001,0.60369
3325.20124,0.60192
3323.27247,0.60019
3321.34369,0.59852
3319.41492,0.59690
3317.48615,0.59533
3315.55738,0.59382
3313.62861,0.59235
3311.69984,0.59087
3309.77107,0.58939
3307.84230,0.58794
3305.91353,0.58659
3303.98476,0.58535
3302.05598,0.58415
3300.12721,0.58294
3298.19844,0.58173
3296.26967,0.58056
3294.34090,0.57947
3292.41213,0.57843
3290.48336,0.57743
3288.55459,0.57646
3286.62582,0.57551
3284.69705,0.57456
3282.76827,0.57364
3280.83950,0.57276
3278.91073,0.57192
3276.98196,0.57108
3275.05319,0.57020
3273.12442,0.56930
3271.19565,0.56845
3269.26688,0.56770
3267.33811,0.56698
3265.40934,0.56623
3263.48056,0.56542
3261.55179,0.56460
3259.62302,0.56377
3257.69425,0.56293
3255.76548,0.56209
3253.83671,0.56123
3251.90794,0.56035
3249.97917,0.55944
3248.05040,0.55854
3246.12162,0.55762
3244.19285,0.55665
3242.26408,0.55568
3240.33531,0.55471
3238.40654,0.55371
3236.47777,0.55268
3234.54900,0.55166
3232.62023,0.55068
3230.69146,0.54973
3228.76269,0.54875
3226.83391,0.54775
3224.90514,0.54676
3222.97637,0.54581
3221.04760,0.54483
3219.11883,0.54382
3217.19006,0.54285
3215.26129,0.54190
3213.33252,0.54095
3211.40375,0.54000
3209.47498,0.53904
3207.54620,0.53808
3205.61743,0.53714
3203.68866,0.53620
3201.75989,0.53524
3199.83112,0.53430
3197.90235,0.53331
3195.97358,0.53229
3194.04481,0.53130
3192.11604,0.53036
3190.18727,0.52942
3188.25849,0.52850
3186.32972,0.52759
3184.40095,0.52668
3182.47218,0.52579
3180.54341,0.52496
3178.61464,0.52410
3176.68587,0.52320
3174.75710,0.52234
3172.82833,0.52152
3170.89956,0.52070
3168.97078,0.51986
3167.04201,0.51904
3165.11324,0.51823
3163.18447,0.51744
3161.25570,0.51666
3159.32693,0.51587
3157.39816,0.51507
3155.46939,0.51425
3153.54062,0.51344
3151.61185,0.51268
3149.68307,0.51199
3147.75430,0.51130
3145.82553,0.51059
3143.89676,0.50987
3141.96799,0.50912
3140.03922,0.50835
3138.11045,0.50764
3136.18168,0.50703
3134.25291,0.50638
3132.32413,0.50563
3130.39536,0.50488
3128.46659,0.50420
3126.53782,0.50354
3124.60905,0.50283
3122.68028,0.50207
3120.75151,0.50129
3118.82274,0.50055
3116.89397,0.49985
3114.96520,0.49918
3113.03642,0.49853
3111.10765,0.49788
3109.17888,0.49719
3107.25011,0.49651
3105.32134,0.49587
3103.39257,0.49520
3101.46380,0.49446
3099.53503,0.49373
3097.60626,0.49307
3095.67749,0.49240
3093.74871,0.49166
3091.81994,0.49091
3089.89117,0.49020
3087.96240,0.48951
3086.03363,0.48883
3084.10486,0.48816
3082.17609,0.48749
3080.24732,0.48679
3078.31855,0.48611
3076.38978,0.48549
3074.46100,0.48492
3072.53223,0.48431
3070.60346,0.48366
3068.67469,0.48300
3066.74592,0.48233
3064.81715,0.48170
3062.88838,0.48110
3060.95961,0.48052
3059.03084,0.47993
3057.10207,0.47927
3055.17329,0.47860
3053.24452,0.47798
3051.31575,0.47739
3049.38698,0.47679
3047.45821,0.47616
3045.52944,0.47553
3043.60067,0.47493
3041.67190,0.47437
3039.74313,0.47385
3037.81435,0.47333
3035.88558,0.47277
3033.95681,0.47221
3032.02804,0.47167
3030.09927,0.47112
3028.17050,0.47059
3026.24173,0.47007
3024.31296,0.46951
3022.38419,0.46896
3020.45542,0.46842
3018.52664,0.46787
3016.59787,0.46732
3014.66910,0.46678
3012.74033,0.46627
3010.81156,0.46581
3008.88279,0.46540
3006.95402,0.46499
3005.02525,0.46453
3003.09648,0.46403
3001.16771,0.46353
2999.23893,0.46306
2997.31016,0.46261
2995.38139,0.46217
2993.45262,0.46171
2991.52385,0.46131
2989.59508,0.46097
2987.66631,0.46064
2985.73754,0.46030
2983.80877,0.45992
2981.88000,0.45954
2979.95122,0.45922
2978.02245,0.45898
2976.09368,0.45878
2974.16491,0.45862
2972.23614,0.45854
2970.30737,0.45851
2968.37860,0.45849
2966.44983,0.45843
2964.52106,0.45833
2962.59229,0.45816
2960.66351,0.45791
2958.73474,0.45752
2956.80597,0.45701
2954.87720,0.45640
2952.94843,0.45579
2951.01966,0.45523
2949.09089,0.45473
2947.16212,0.45433
2945.23335,0.45410
2943.30457,0.45407
2941.37580,0.45421
2939.44703,0.45448
2937.51826,0.45484
2935.58949,0.45525
2933.66072,0.45569
2931.73195,0.45611
2929.80318,0.45650
2927.87441,0.45682
2925.94564,0.45697
2924.01686,0.45687
2922.08809,0.45646
2920.15932,0.45564
2918.23055,0.45430
2916.30178,0.45252
2914.37301,0.45056
2912.44424,0.44871
2910.51547,0.44716
2908.58670,0.44588
2906.65793,0.44480
2904.72915,0.44385
2902.80038,0.44298
2900.87161,0.44216
2898.94284,0.44134
2897.01407,0.44055
2895.08530,0.43981
2893.15653,0.43911
2891.22776,0.43844
2889.29899,0.43780
2887.37022,0.43719
2885.44144,0.43662
2883.51267,0.43610
2881.58390,0.43563
2879.65513,0.43519
2877.72636,0.43475
2875.79759,0.43427
2873.86882,0.43380
2871.94005,0.43341
2870.01128,0.43306
2868.08251,0.43272
2866.15373,0.43244
2864.22496,0.43228
2862.29619,0.43224
2860.36742,0.43233
2858.43865,0.43251
2856.50988,0.43264
2854.58111,0.43252
2852.65234,0.43202
2850.72357,0.43103
2848.79480,0.42962
2846.86602,0.42803
2844.93725,0.42654
2843.00848,0.42526
2841.07971,0.42416
2839.15094,0.42321
2837.22217,0.42241
2835.29340,0.42167
2833.36463,0.42098
2831.43586,0.42030
2829.50708,0.41967
2827.57831,0.41907
2825.64954,0.41849
2823.72077,0.41793
2821.79200,0.41740
2819.86323,0.41687
2817.93446,0.41634
2816.00569,0.41583
2814.07692,0.41532
2812.14815,0.41480
2810.21937,0.41428
2808.29060,0.41379
2806.36183,0.41330
2804.43306,0.41281
2802.50429,0.41231
2800.57552,0.41181
2798.64675,0.41130
2796.71798,0.41082
2794.78921,0.41035
2792.86044,0.40987
2790.93166,0.40937
2789.00289,0.40889
2787.07412,0.40843
2785.14535,0.40797
2783.21658,0.40750
2781.28781,0.40701
2779.35904,0.40653
2777.43027,0.40606
2775.50150,0.40557
2773.57273,0.40511
2771.64395,0.40466
2769.71518,0.40421
2767.78641,0.40374
2765.85764,0.40328
2763.92887,0.40282
2762.00010,0.40235
2760.07133,0.40188
2758.14256,0.40141
2756.21379,0.40095
2754.28502,0.40049
2752.35624,0.40003
2750.42747,0.39956
2748.49870,0.39910
2746.56993,0.39865
2744.64116,0.39820
2742.71239,0.39775
2740.78362,0.39730
2738.85485,0.39684
2736.92608,0.39639
2734.99730,0.39594
2733.06853,0.39549
2731.13976,0.39502
2729.21099,0.39453
2727.28222,0.39406
2725.35345,0.39360
2723.42468,0.39315
2721.49591,0.39270
2719.56714,0.39225
2717.63837,0.39179
2715.70959,0.39133
2713.78082,0.39087
2711.85205,0.39040
2709.92328,0.38994
2707.99451,0.38949
2706.06574,0.38904
2704.13697,0.38859
2702.20820,0.38813
2700.27943,0.38767
2698.35066,0.38721
2696.42188,0.38675
2694.49311,0.38629
2692.56434,0.38584
2690.63557,0.38539
2688.70680,0.38494
2686.77803,0.38449
2684.84926,0.38404
2682.92049,0.38358
2680.99172,0.38313
2679.06295,0.38269
2677.13417,0.38224
2675.20540,0.38178
2673.27663,0.38133
2671.34786,0.38089
2669.41909,0.38045
2667.49032,0.37999
2665.56155,0.37954
2663.63278,0.37909
2661.70401,0.37865
2659.77524,0.37820
2657.84646,0.37775
2655.91769,0.37730
2653.98892,0.37686
2652.06015,0.37642
2650.13138,0.37596
2648.20261,0.37549
2646.27384,0.37503
2644.34507,0.37458
2642.41630,0.37413
2640.48752,0.37368
2638.55875,0.37323
2636.62998,0.37277
2634.70121,0.37233
2632.77244,0.37188
2630.84367,0.37143
2628.91490,0.37098
2626.98613,0.37054
2625.05736,0.37010
2623.12859,0.36964
2621.19981,0.36920
2619.27104,0.36876
2617.34227,0.36832
2615.41350,0.36787
2613.48473,0.36743
2611.55596,0.36698
2609.62719,0.36654
2607.69842,0.36610
2605.76965,0.36566
2603.84088,0.36521
2601.91210,0.36476
2599.98333,0.36432
2598.05456,0.36389
2596.12579,0.36345
2594.19702,0.36301
2592.26825,0.36257
2590.33948,0.36212
2588.41071,0.36168
2586.48194,0.36124
2584.55317,0.36081
2582.62439,0.36037
2580.69562,0.35993
2578.76685,0.35949
2576.83808,0.35905
2574.90931,0.35860
2572.98054,0.35816
2571.05177,0.35773
2569.12300,0.35730
2567.19423,0.35687
2565.26546,0.35643
2563.33668,0.35599
2561.40791,0.35556
2559.47914,0.35513
2557.55037,0.35470
2555.62160,0.35426
2553.69283,0.35382
2551.76406,0.35338
2549.83529,0.35294
2547.90652,0.35251
2545.97775,0.35208
2544.04897,0.35166
2542.12020,0.35123
2540.19143,0.35080
2538.26266,0.35036
2536.33389,0.34993
2534.40512,0.34950
2532.47635,0.34907
2530.54758,0.34865
2528.61881,0.34823
2526.69003,0.34780
2524.76126,0.34738
2522.83249,0.34694
2520.90372,0.34651
2518.97495,0.34608
2517.04618,0.34565
2515.11741,0.34521
2513.18864,0.34478
2511.25987,0.34436
2509.33110,0.34393
2507.40232,0.34350
2505.47355,0.34307
2503.54478,0.34263
2501.61601,0.34220
2499.68724,0.34177
2497.75847,0.34135
2495.82970,0.34092
2493.90093,0.34050
2491.97216,0.34007
2490.04339,0.33963
2488.11461,0.33920
2486.18584,0.33877
2484.25707,0.33835
2482.32830,0.33792
2480.39953,0.33749
2478.47076,0.33706
2476.54199,0.33664
2474.61322,0.33621
2472.68445,0.33579
2470.75568,0.33537
2468.82690,0.33495
2466.89813,0.33452
2464.96936,0.33410
2463.04059,0.33368
2461.11182,0.33326
2459.18305,0.33283
2457.25428,0.33241
2455.32551,0.33198
2453.39674,0.33156
2451.46797,0.33114
2449.53919,0.33072
2447.61042,0.33029
2445.68165,0.32987
2443.75288,0.32946
2441.82411,0.32904
2439.89534,0.32862
2437.96657,0.32819
2436.03780,0.32776
2434.10903,0.32734
2432.18025,0.32694
2430.25148,0.32653
2428.32271,0.32612
2426.39394,0.32571
2424.46517,0.32528
2422.53640,0.32485
2420.60763,0.32442
2418.67886,0.32400
2416.75009,0.32359
2414.82132,0.32317
2412.89254,0.32275
2410.96377,0.32234
2409.03500,0.32193
2407.10623,0.32152
2405.17746,0.32109
2403.24869,0.32066
2401.31992,0.32024
2399.39115,0.31982
2397.46238,0.31941
2395.53361,0.31901
2393.60483,0.31860
2391.67606,0.31821
2389.74729,0.31785
2387.81852,0.31757
2385.88975,0.31738
2383.96098,0.31731
2382.03221,0.31733
2380.10344,0.31739
2378.17467,0.31742
2376.24590,0.31744
2374.31712,0.31746
2372.38835,0.31748
2370.45958,0.31746
2368.53081,0.31736
2366.60204,0.31716
2364.67327,0.31678
2362.74450,0.31625
2360.81573,0.31554
2358.88696,0.31458
2356.95819,0.31336
2355.02941,0.31209
2353.10064,0.31093
2351.17187,0.31044
2349.24310,0.31099
2347.31433,0.31201
2345.38556,0.31238
2343.45679,0.31165
2341.52802,0.31068
2339.59925,0.30992
2337.67048,0.30932
2335.74170,0.30882
2333.81293,0.30839
2331.88416,0.30786
2329.95539,0.30717
2328.02662,0.30653
2326.09785,0.30604
2324.16908,0.30549
2322.24031,0.30478
2320.31154,0.30404
2318.38276,0.30344
2316.45399,0.30301
2314.52522,0.30263
2312.59645,0.30215
2310.66768,0.30160
2308.73891,0.30105
2306.81014,0.30054
2304.88137,0.30008
2302.95260,0.29967
2301.02383,0.29926
2299.09505,0.29881
2297.16628,0.29837
2295.23751,0.29792
2293.30874,0.29748
2291.37997,0.29702
2289.45120,0.29657
2287.52243,0.29613
2285.59366,0.29571
2283.66489,0.29533
2281.73612,0.29497
2279.80734,0.29461
2277.87857,0.29422
2275.94980,0.29383
2274.02103,0.29343
2272.09226,0.29304
2270.16349,0.29264
2268.23472,0.29223
2266.30595,0.29182
2264.37718,0.29141
2262.44841,0.29101
2260.51963,0.29061
2258.59086,0.29021
2256.66209,0.28980
2254.73332,0.28940
2252.80455,0.28900
2250.87578,0.28860
2248.94701,0.28820
2247.01824,0.28781
2245.08947,0.28742
2243.16070,0.28702
2241.23192,0.28662
2239.30315,0.28623
2237.37438,0.28585
2235.44561,0.28545
2233.51684,0.28506
2231.58807,0.28467
2229.65930,0.28429
2227.73053,0.28390
2225.80176,0.28352
2223.87298,0.28313
2221.94421,0.28275
2220.01544,0.28237
2218.08667,0.28200
2216.15790,0.28162
2214.22913,0.28124
2212.30036,0.28086
2210.37159,0.28049
2208.44282,0.28012
2206.51405,0.27976
2204.58527,0.27939
2202.65650,0.27903
2200.72773,0.27866
2198.79896,0.27830
2196.87019,0.27794
2194.94142,0.27759
2193.01265,0.27724
2191.08388,0.27689
2189.15511,0.27654
2187.22634,0.27619
2185.29756,0.27585
2183.36879,0.27551
2181.44002,0.27517
2179.51125,0.27484
2177.58248,0.27450
2175.65371,0.27416
2173.72494,0.27382
2171.79617,0.27350
2169.86740,0.27319
2167.93863,0.27286
2166.00985,0.27255
2164.08108,0.27223
2162.15231,0.27192
2160.22354,0.27161
2158.29477,0.27131
2156.36600,0.27101
2154.43723,0.27071
2152.50846,0.27041
2150.57969,0.27012
2148.65092,0.26983
2146.72214,0.26955
2144.79337,0.26927
2142.86460,0.26898
2140.93583,0.26870
2139.00706,0.26842
2137.07829,0.26813
2135.14952,0.26784
2133.22075,0.26756
2131.29198,0.26727
2129.36320,0.26698
2127.43443,0.26669
2125.50566,0.26639
2123.57689,0.26610
2121.64812,0.26581
2119.71935,0.26552
2117.79058,0.26523
2115.86181,0.26493
2113.93304,0.26462
2112.00427,0.26431
2110.07549,0.26401
2108.14672,0.26370
2106.21795,0.26340
2104.28918,0.26311
2102.36041,0.26283
2100.43164,0.26255
2098.50287,0.26227
2096.57410,0.26200
2094.64533,0.26174
2092.71656,0.26148
2090.78778,0.26124
2088.85901,0.26099
2086.93024,0.26075
2085.00147,0.26052
2083.07270,0.26030
2081.14393,0.26008
2079.21516,0.25986
2077.28639,0.25963
2075.35762,0.25938
2073.42885,0.25912
2071.50007,0.25886
2069.57130,0.25860
2067.64253,0.25835
2065.71376,0.25807
2063.78499,0.25774
2061.85622,0.25742
2059.92745,0.25711
2057.99868,0.25680
2056.06991,0.25649
2054.14114,0.25617
2052.21236,0.25584
2050.28359,0.25551
2048.35482,0.25519
2046.42605,0.25487
2044.49728,0.25455
2042.56851,0.25422
2040.63974,0.25386
2038.71097,0.25350
2036.78220,0.25317
2034.85343,0.25284
2032.92465,0.25251
2030.99588,0.25217
2029.06711,0.25184
2027.13834,0.25151
2025.20957,0.25117
2023.28080,0.25085
2021.35203,0.25056
2019.42326,0.25029
2017.49449,0.24995
2015.56571,0.24955
2013.63694,0.24921
2011.70817,0.24891
2009.77940,0.24859
2007.85063,0.24826
2005.92186,0.24792
2003.99309,0.24759
2002.06432,0.24727
2000.13555,0.24694
1998.20678,0.24661
1996.27800,0.24633
1994.34923,0.24611
1992.42046,0.24579
1990.49169,0.24539
1988.56292,0.24505
1986.63415,0.24478
1984.70538,0.24452
1982.77661,0.24428
1980.84784,0.24404
1978.91907,0.24380
1976.99029,0.24358
1975.06152,0.24336
1973.13275,0.24316
1971.20398,0.24301
1969.27521,0.24289
1967.34644,0.24268
1965.41767,0.24239
1963.48890,0.24217
1961.56013,0.24202
1959.63136,0.24184
1957.70258,0.24165
1955.77381,0.24146
1953.84504,0.24126
1951.91627,0.24108
1949.98750,0.24092
1948.05873,0.24080
1946.12996,0.24073
1944.20119,0.24061
1942.27242,0.24026
1940.34365,0.23986
1938.41487,0.23961
1936.48610,0.23938
1934.55733,0.23908
1932.62856,0.23872
1930.69979,0.23832
1928.77102,0.23791
1926.84225,0.23755
1924.91348,0.23721
1922.98471,0.23673
1921.05593,0.23624
1919.12716,0.23577
1917.19839,0.23510
1915.26962,0.23450
1913.34085,0.23416
1911.41208,0.23383
1909.48331,0.23334
1907.55454,0.23279
1905.62577,0.23230
1903.69700,0.23185
1901.76822,0.23140
1899.83945,0.23097
1897.91068,0.23060
1895.98191,0.23017
1894.05314,0.22970
1892.12437,0.22933
1890.19560,0.22888
1888.26683,0.22822
1886.33806,0.22770
1884.40929,0.22731
1882.48051,0.22689
1880.55174,0.22647
1878.62297,0.22607
1876.69420,0.22569
1874.76543,0.22539
1872.83666,0.22529
1870.90789,0.22529
1868.97912,0.22489
1867.05035,0.22417
1865.12158,0.22377
1863.19280,0.22363
1861.26403,0.22347
1859.33526,0.22325
1857.40649,0.22301
1855.47772,0.22280
1853.54895,0.22262
1851.62018,0.22250
1849.69141,0.22245
1847.76264,0.22251
1845.83387,0.22245
1843.90509,0.22185
1841.97632,0.22123
1840.04755,0.22110
1838.11878,0.22103
1836.19001,0.22079
1834.26124,0.22066
1832.33247,0.22071
1830.40370,0.22051
1828.47493,0.22002
1826.54615,0.21970
1824.61738,0.21934
1822.68861,0.21895
1820.75984,0.21877
1818.83107,0.21863
1816.90230,0.21843
1814.97353,0.21829
1813.04476,0.21826
1811.11599,0.21809
1809.18722,0.21776
1807.25844,0.21756
1805.32967,0.21759
1803.40090,0.21772
1801.47213,0.21770
1799.54336,0.21749
1797.61459,0.21744
1795.68582,0.21773
1793.75705,0.21795
1791.82828,0.21758
1789.89951,0.21715
1787.97073,0.21722
1786.04196,0.21740
1784.11319,0.21743
1782.18442,0.21744
1780.25565,0.21738
1778.32688,0.21734
1776.39811,0.21762
1774.46934,0.21801
1772.54057,0.21786
1770.61180,0.21729
1768.68302,0.21698
1766.75425,0.21693
1764.82548,0.21715
1762.89671,0.21734
1760.96794,0.21721
1759.03917,0.21718
1757.11040,0.21724
1755.18163,0.21734
1753.25286,0.21779
1751.32409,0.21820
1749.39531,0.21818
1747.46654,0.21812
1745.53777,0.21832
1743.60900,0.21866
1741.68023,0.21896
1739.75146,0.21908
1737.82269,0.21944
1735.89392,0.22007
1733.96515,0.22002
1732.03638,0.21952
1730.10760,0.21955
1728.17883,0.21977
1726.25006,0.22007
1724.32129,0.22043
1722.39252,0.22090
1720.46375,0.22168
1718.53498,0.22232
1716.60621,0.22206
1714.67744,0.22165
1712.74866,0.22178
1710.81989,0.22224
1708.89112,0.22286
1706.96235,0.22339
1705.03358,0.22375
1703.10481,0.22437
1701.17604,0.22502
1699.24727,0.22519
1697.31850,0.22538
1695.38973,0.22555
1693.46095,0.22595
1691.53218,0.22689
1689.60341,0.22799
1687.67464,0.22921
1685.74587,0.23051
1683.81710,0.23114
1681.88833,0.23151
1679.95956,0.23250
1678.03079,0.23380
1676.10202,0.23505
1674.17324,0.23617
1672.24447,0.23742
1670.31570,0.23867
1668.38693,0.23957
1666.45816,0.24068
1664.52939,0.24225
1662.60062,0.24393
1660.67185,0.24559
1658.74308,0.24744
1656.81431,0.24959
1654.88553,0.25195
1652.95676,0.25408
1651.02799,0.25584
1649.09922,0.25801
1647.17045,0.26035
1645.24168,0.26211
1643.31291,0.26367
1641.38414,0.26542
1639.45537,0.26724
1637.52660,0.26888
1635.59782,0.26970
1633.66905,0.26996
1631.74028,0.27055
1629.81151,0.27113
1627.88274,0.27125
1625.95397,0.27100
1624.02520,0.27029
1622.09643,0.26919
1620.16766,0.26854
1618.23888,0.26778
1616.31011,0.26545
1614.38134,0.26276
1612.45257,0.26092
1610.52380,0.25915
1608.59503,0.25714
1606.66626,0.25515
1604.73749,0.25335
1602.80872,0.25160
1600.87995,0.24986
1598.95117,0.24827
1597.02240,0.24681
1595.09363,0.24534
1593.16486,0.24387
1591.23609,0.24250
1589.30732,0.24119
1587.37855,0.23994
1585.44978,0.23879
1583.52101,0.23772
1581.59224,0.23681
1579.66346,0.23627
1577.73469,0.23569
1575.80592,0.23423
1573.87715,0.23302
1571.94838,0.23273
1570.01961,0.23218
1568.09084,0.23114
1566.16207,0.23051
1564.23330,0.23032
1562.30453,0.23065
1560.37575,0.23108
1558.44698,0.22976
1556.51821,0.22831
1554.58944,0.22799
1552.66067,0.22784
1550.73190,0.22768
1548.80313,0.22755
1546.87436,0.22772
1544.94559,0.22818
1543.01682,0.22863
1541.08804,0.22844
1539.15927,0.22717
1537.23050,0.22674
1535.30173,0.22717
1533.37296,0.22728
1531.44419,0.22713
1529.51542,0.22744
1527.58665,0.22794
1525.65788,0.22833
1523.72910,0.22876
1521.80033,0.22894
1519.87156,0.22880
1517.94279,0.22884
1516.01402,0.22882
1514.08525,0.22886
1512.15648,0.22928
1510.22771,0.23008
1508.29894,0.23072
1506.37017,0.22996
1504.44139,0.22918
1502.51262,0.22951
1500.58385,0.23020
1498.65508,0.23072
1496.72631,0.23085
1494.79754,0.23101
1492.86877,0.23169
1490.94000,0.23255
1489.01123,0.23300
1487.08246,0.23316
1485.15368,0.23359
1483.22491,0.23429
1481.29614,0.23510
1479.36737,0.23601
1477.43860,0.23710
1475.50983,0.23837
1473.58106,0.23952
1471.65229,0.24033
1469.72352,0.24113
1467.79475,0.24218
1465.86597,0.24316
1463.93720,0.24378
1462.00843,0.24453
1460.07966,0.24569
1458.15089,0.24673
1456.22212,0.24688
1454.29335,0.24701
1452.36458,0.24758
1450.43581,0.24830
1448.50704,0.24893
1446.57826,0.24942
1444.64949,0.24996
1442.72072,0.25065
1440.79195,0.25150
1438.86318,0.25247
1436.93441,0.25327
1435.00564,0.25383
1433.07687,0.25456
1431.14810,0.25543
1429.21933,0.25619
1427.29055,0.25696
1425.36178,0.25785
1423.43301,0.25879
1421.50424,0.25976
1419.57547,0.26066
1417.64670,0.26125
1415.71793,0.26183
1413.78916,0.26262
1411.86039,0.26350
1409.93161,0.26439
1408.00284,0.26535
1406.07407,0.26634
1404.14530,0.26725
1402.21653,0.26812
1400.28776,0.26903
1398.35899,0.26982
1396.43022,0.27041
1394.50145,0.27083
1392.57268,0.27128
1390.64390,0.27208
1388.71513,0.27332
1386.78636,0.27484
1384.85759,0.27613
1382.92882,0.27683
1381.00005,0.27718
1379.07128,0.27765
1377.14251,0.27838
1375.21374,0.27916
1373.28497,0.27980
1371.35619,0.28047
1369.42742,0.28130
1367.49865,0.28221
1365.56988,0.28318
1363.64111,0.28418
1361.71234,0.28505
1359.78357,0.28585
1357.85480,0.28673
1355.92603,0.28770
1353.99726,0.28867
1352.06848,0.28963
1350.13971,0.29061
1348.21094,0.29162
1346.28217,0.29265
1344.35340,0.29373
1342.42463,0.29493
1340.49586,0.29617
1338.56709,0.29734
1336.63832,0.29844
1334.70955,0.29961
1332.78077,0.30089
1330.85200,0.30223
1328.92323,0.30361
1326.99446,0.30503
1325.06569,0.30646
1323.13692,0.30790
1321.20815,0.30937
1319.27938,0.31085
1317.35061,0.31228
1315.42183,0.31368
1313.49306,0.31508
1311.56429,0.31648
1309.63552,0.31789
1307.70675,0.31932
1305.77798,0.32079
1303.84921,0.32229
1301.92044,0.32383
1299.99167,0.32541
1298.06290,0.32703
1296.13412,0.32868
1294.20535,0.33035
1292.27658,0.33204
1290.34781,0.33376
1288.41904,0.33552
1286.49027,0.33728
1284.56150,0.33904
1282.63273,0.34081
1280.70396,0.34260
1278.77519,0.34442
1276.84641,0.34626
1274.91764,0.34812
1272.98887,0.35001
1271.06010,0.35193
1269.13133,0.35387
1267.20256,0.35584
1265.27379,0.35784
1263.34502,0.35987
1261.41625,0.36193
1259.48748,0.36398
1257.55870,0.36603
1255.62993,0.36812
1253.70116,0.37026
1251.77239,0.37247
1249.84362,0.37471
1247.91485,0.37700
1245.98608,0.37933
1244.05731,0.38172
1242.12854,0.38416
1240.19977,0.38665
1238.27099,0.38920
1236.34222,0.39180
1234.41345,0.39444
1232.48468,0.39712
1230.55591,0.39985
1228.62714,0.40263
1226.69837,0.40546
1224.76960,0.40836
1222.84083,0.41132
1220.91206,0.41434
1218.98328,0.41742
1217.05451,0.42057
1215.12574,0.42381
1213.19697,0.42714
1211.26820,0.43056
1209.33943,0.43404
1207.41066,0.43761
1205.48189,0.44124
1203.55312,0.44494
1201.62434,0.44871
1199.69557,0.45253
1197.76680,0.45640
1195.83803,0.46035
1193.90926,0.46438
1191.98049,0.46853
1190.05172,0.47279
1188.12295,0.47715
1186.19418,0.48159
1184.26541,0.48613
1182.33663,0.49075
1180.40786,0.49549
1178.47909,0.50032
1176.55032,0.50525
1174.62155,0.51028
1172.69278,0.51545
1170.76401,0.52075
1168.83524,0.52620
1166.90647,0.53181
1164.97770,0.53754
1163.04892,0.54339
1161.12015,0.54944
1159.19138,0.55579
1157.26261,0.56251
1155.33384,0.56962
1153.40507,0.57716
1151.47630,0.58524
1149.54753,0.59396
1147.61876,0.60345
1145.68999,0.61374
1143.76121,0.62482
1141.83244,0.63638
1139.90367,0.64775
1137.97490,0.65843
1136.04613,0.66871
1134.11736,0.67975
1132.18859,0.69276
1130.25982,0.70823
1128.33105,0.72581
1126.40228,0.74465
1124.47350,0.76344
1122.54473,0.77997
1120.61596,0.79174
1118.68719,0.79757
1116.75842,0.79895
1114.82965,0.79926
1112.90088,0.80167
1110.97211,0.80792
1109.04334,0.81840
1107.11456,0.83290
1105.18579,0.85086
1103.25702,0.87167
1101.32825,0.89461
1099.39948,0.91897
1097.47071,0.94417
1095.54194,0.96955
1093.61317,0.99447
1091.68440,1.01827
1089.75563,1.04048
1087.82685,1.06066
1085.89808,1.07860
1083.96931,1.09428
1082.04054,1.10762
1080.11177,1.11890
1078.18300,1.12843
1076.25423,1.13684
1074.32546,1.14455
1072.39669,1.15179
1070.46792,1.15866
1068.53914,1.16493
1066.61037,1.17057
1064.68160,1.17531
1062.75283,1.17876
1060.82406,1.18036
1058.89529,1.17979
1056.96652,1.17695
1055.03775,1.17165
1053.10898,1.16374
1051.18021,1.15270
1049.25143,1.13827
1047.32266,1.12062
1045.39389,1.10080
1043.46512,1.08033
1041.53635,1.06083
1039.60758,1.04413
1037.67881,1.03166
1035.75004,1.02399
1033.82127,1.02051
1031.89250,1.01964
1029.96372,1.01941
1028.03495,1.01784
1026.10618,1.01351
1024.17741,1.00588
1022.24864,0.99548
1020.31987,0.98339
1018.39110,0.97086
1016.46233,0.95897
1014.53356,0.94821
1012.60478,0.93873
1010.67601,0.93063
1008.74724,0.92419
1006.81847,0.91929
1004.88970,0.91523
1002.96093,0.91079
1001.03216,0.90437
999.10339,0.89459
997.17462,0.88100
995.24585,0.86448
993.31707,0.84707
991.38830,0.83159
989.45953,0.82134
987.53076,0.81930
985.60199,0.82704
983.67322,0.84430
981.74445,0.86938
979.81568,0.89995
977.88691,0.93369
975.95814,0.96848
974.02936,1.00215
972.10059,1.03244
970.17182,1.05717
968.24305,1.07538
966.31428,1.08813
964.38551,1.09811
962.45674,1.10813
960.52797,1.12001
958.59920,1.13433
956.67043,1.15059
954.74165,1.16762
952.81288,1.18380
950.88411,1.19759
948.95534,1.20787
947.02657,1.21402
945.09780,1.21624
943.16903,1.21539
941.24026,1.21233
939.31149,1.20744
937.38272,1.20093
935.45394,1.19300
933.52517,1.18368
931.59640,1.17271
929.66763,1.15935
927.73886,1.14239
925.81009,1.12032
923.88132,1.09184
921.95255,1.05661
920.02378,1.01610
918.09501,0.97391
916.16623,0.93459
914.23746,0.90127
912.30869,0.87468
910.37992,0.85455
908.45115,0.84177
906.52238,0.83871
904.59361,0.84731
902.66484,0.86688
900.73607,0.89389
898.80729,0.92367
896.87852,0.95228
894.94975,0.97758
893.02098,0.99903
891.09221,1.01686
889.16344,1.03156
887.23467,1.04338
885.30590,1.05221
883.37713,1.05779
881.44836,1.06014
879.51958,1.05950
877.59081,1.05604
875.66204,1.04988
873.73327,1.04125
871.80450,1.03048
869.87573,1.01787
867.94696,1.00374
866.01819,0.98824
864.08942,0.97133
862.16065,0.95305
860.23187,0.93338
858.30310,0.91236
856.37433,0.89002
854.44556,0.86662
852.51679,0.84254
850.58802,0.81823
848.65925,0.79420
846.73048,0.77087
844.80171,0.74837
842.87294,0.72662
840.94416,0.70556
839.01539,0.68523
837.08662,0.66567
835.15785,0.64692
833.22908,0.62895
831.30031,0.61166
829.37154,0.59493
827.44277,0.57856
825.51400,0.56242
823.58523,0.54660
821.65645,0.53123
819.72768,0.51638
817.79891,0.50216
815.87014,0.48861
813.94137,0.47571
812.01260,0.46336
810.08383,0.45153
808.15506,0.44022
806.22629,0.42939
804.29751,0.41894
802.36874,0.40876
800.43997,0.39873
798.51120,0.38875
796.58243,0.37879
794.65366,0.36897
792.72489,0.35942
790.79612,0.35023
788.86735,0.34137
786.93858,0.33278
785.00980,0.32438
783.08103,0.31610
781.15226,0.30788
779.22349,0.29960
777.29472,0.29124
775.36595,0.28297
773.43718,0.27503
771.50841,0.26760
769.57964,0.26079
767.65087,0.25468
765.72209,0.24936
763.79332,0.24478
761.86455,0.24081
759.93578,0.23729
758.00701,0.23419
756.07824,0.23184
754.14947,0.23092
752.22070,0.23240
750.29193,0.23722
748.36316,0.24583
746.43438,0.25689
744.50561,0.26625
742.57684,0.26943
740.64807,0.26682
738.71930,0.26412
736.79053,0.26704
734.86176,0.27792
732.93299,0.29626
731.00422,0.31927
729.07545,0.34151
727.14667,0.35570
725.21790,0.35689
723.28913,0.34631
721.36036,0.32884
719.43159,0.30958
717.50282,0.29249
715.57405,0.27879
713.64528,0.26824
711.71651,0.26068
709.78773,0.25587
707.85896,0.25357
705.93019,0.25358
704.00142,0.25585
702.07265,0.26035
700.14388,0.26722
698.21511,0.27668
696.28634,0.28902
694.35757,0.30435
692.42880,0.32238
690.50002,0.34175
688.57125,0.35951
686.64248,0.37133
684.71371,0.37399
682.78494,0.36761
680.85617,0.35527
678.92740,0.34087
676.99863,0.32654
675.06986,0.31234
673.14109,0.29885
671.21231,0.28790
669.28354,0.27906
667.35477,0.27410
665.42600,0.27642
663.49723,0.28418
661.56846,0.29766
659.63969,0.31682
657.71092,0.34067
655.78215,0.36791
653.85338,0.39621
651.92460,0.42266
649.99583,0.44559
648.06706,0.46507
646.13829,0.48143
644.20952,0.49392
642.28075,0.50002
640.35198,0.49732
638.42321,0.48555
636.49444,0.46720
634.56567,0.44601
632.63689,0.42578
630.70812,0.40888
628.77935,0.39576
626.85058,0.38578
624.92181,0.37786
622.99304,0.37137
621.06427,0.36605
619.13550,0.36184
617.20673,0.35879
615.27796,0.35708
613.34918,0.35689
611.42041,0.35817
609.49164,0.36093
607.56287,0.36510
605.63410,0.37065
603.70533,0.37755
601.77656,0.38576
599.84779,0.39540
597.91902,0.40634
595.99024,0.41844
594.06147,0.43180
592.13270,0.44679
590.20393,0.46328
588.27516,0.48081
586.34639,0.49965
584.41762,0.51997
582.48885,0.54175
580.56008,0.56514
578.63131,0.59027
576.70253,0.61776
574.77376,0.64777
572.84499,0.67948
570.91622,0.71293
568.98745,0.74860
567.05868,0.78468
565.12991,0.81864
563.20114,0.84840
561.27237,0.87206
559.34360,0.88844
557.41482,0.89808
555.48605,0.90438
553.55728,0.91026
551.62851,0.91698
549.69974,0.92476
547.77097,0.93443
545.84220,0.94676
543.91343,0.96047
541.98466,0.97387
540.05589,0.98486
538.12711,0.99233
536.19834,0.99557
534.26957,0.99258
532.34080,0.98108
530.41203,0.96319
528.48326,0.94916
526.55449,0.95137
524.62572,0.97600
522.69695,1.01666
520.76818,1.06280
518.83940,1.10695
516.91063,1.14388
514.98186,1.17251
513.05309,1.19521
511.12432,1.21555
509.19555,1.23501
507.26678,1.25348
505.33801,1.26822
503.40924,1.27568
501.48046,1.27555
499.55169,1.26727
497.62292,1.25134
495.69415,1.22965
493.76538,1.20239
491.83661,1.16801
489.90784,1.12837
487.97907,1.08818
486.05030,1.04892
484.12153,1.01072
482.19275,0.97469
480.26398,0.94043
478.33521,0.90600
476.40644,0.87169
474.47767,0.83956
472.54890,0.81357
470.62013,0.80080
468.69136,0.80086
466.76259,0.80579
464.83382,0.81001
462.90504,0.81342
460.97627,0.81786
459.04750,0.82450
457.11873,0.83223
455.18996,0.83750
453.26119,0.83987
451.33242,0.84135
449.40365,0.84332
447.47488,0.84641
445.54611,0.84914
443.61733,0.84661
441.68856,0.83401
439.75979,0.81205
437.83102,0.78346
435.90225,0.75030
433.97348,0.71753
432.04471,0.68882
430.11594,0.66558
428.18717,0.64965
426.25840,0.63915
424.32962,0.62894
422.40085,0.61638
420.47208,0.60201
418.54331,0.58865
416.61454,0.58342
414.68577,0.58702
412.75700,0.59625
410.82823,0.60730
408.89946,0.61561
406.97069,0.61848
405.04191,0.61588
403.11314,0.61119
401.18437,0.60997
399.25560,0.61749
397.32683,0.63750
395.39806,0.66280
393.46929,0.68334
391.54052,0.69609
389.61175,0.69932
387.68297,0.69526
385.75420,0.68611
383.82543,0.67416
381.89666,0.66191
379.96789,0.64891
378.03912,0.63784
376.11035,0.63486
374.18158,0.64136
372.25281,0.64099
370.32404,0.62888
368.39526,0.61330
366.46649,0.60463
364.53772,0.60615
362.60895,0.61533
360.68018,0.63375
358.75141,0.66784
356.82264,0.72987
354.89387,0.81549
352.96510,0.90925
351.03633,0.98007
349.10755,0.97548
