# 25 FEB 2015 - B.L. de Vries
# Luotolax2, HOW, Sample 1, Take 1
# m = 2.0 mgr, KBr = 610 mgr
# Signal = 6100
# Resolution / sample scan time / bg scan time / range = 4 / 64 / 64 / 4000-300
# Source: glow-bar, Machine: Equinox 55, DTGS
# k(cm-1), absorbance
3996.41355,0.79924
3994.48478,0.79895
3992.55601,0.79864
3990.62724,0.79835
3988.69847,0.79808
3986.76970,0.79772
3984.84093,0.79734
3982.91215,0.79698
3980.98338,0.79658
3979.05461,0.79611
3977.12584,0.79560
3975.19707,0.79527
3973.26830,0.79508
3971.33953,0.79478
3969.41076,0.79445
3967.48199,0.79411
3965.55322,0.79357
3963.62444,0.79303
3961.69567,0.79281
3959.76690,0.79265
3957.83813,0.79227
3955.90936,0.79183
3953.98059,0.79120
3952.05182,0.79041
3950.12305,0.79010
3948.19428,0.79039
3946.26550,0.79007
3944.33673,0.78927
3942.40796,0.78945
3940.47919,0.78976
3938.55042,0.78908
3936.62165,0.78791
3934.69288,0.78679
3932.76411,0.78666
3930.83534,0.78750
3928.90657,0.78732
3926.97779,0.78605
3925.04902,0.78556
3923.12025,0.78569
3921.19148,0.78491
3919.26271,0.78416
3917.33394,0.78486
3915.40517,0.78570
3913.47640,0.78515
3911.54763,0.78395
3909.61886,0.78257
3907.69008,0.78046
3905.76131,0.77881
3903.83254,0.77950
3901.90377,0.78136
3899.97500,0.78290
3898.04623,0.78354
3896.11746,0.78182
3894.18869,0.77887
3892.25992,0.77841
3890.33115,0.77984
3888.40237,0.77866
3886.47360,0.77726
3884.54483,0.77816
3882.61606,0.77789
3880.68729,0.77791
3878.75852,0.77872
3876.82975,0.77682
3874.90098,0.77458
3872.97221,0.77376
3871.04344,0.77402
3869.11466,0.77582
3867.18589,0.77561
3865.25712,0.77413
3863.32835,0.77494
3861.39958,0.77556
3859.47081,0.77352
3857.54204,0.76941
3855.61327,0.76568
3853.68450,0.76944
3851.75572,0.77702
3849.82695,0.77684
3847.89818,0.77313
3845.96941,0.76990
3844.04064,0.76817
3842.11187,0.76728
3840.18310,0.76678
3838.25433,0.76840
3836.32556,0.77065
3834.39679,0.77044
3832.46801,0.76951
3830.53924,0.76886
3828.61047,0.76767
3826.68170,0.76654
3824.75293,0.76473
3822.82416,0.76275
3820.89539,0.76471
3818.96662,0.76653
3817.03785,0.76592
3815.10908,0.76727
3813.18030,0.76736
3811.25153,0.76438
3809.32276,0.76139
3807.39399,0.76142
3805.46522,0.76222
3803.53645,0.76059
3801.60768,0.76134
3799.67891,0.76378
3797.75014,0.76330
3795.82137,0.76290
3793.89259,0.76270
3791.96382,0.76141
3790.03505,0.76021
3788.10628,0.75930
3786.17751,0.75880
3784.24874,0.75883
3782.31997,0.75814
3780.39120,0.75772
3778.46243,0.75889
3776.53366,0.75910
3774.60488,0.75734
3772.67611,0.75521
3770.74734,0.75478
3768.81857,0.75597
3766.88980,0.75642
3764.96103,0.75621
3763.03226,0.75502
3761.10349,0.75319
3759.17472,0.75333
3757.24594,0.75392
3755.31717,0.75170
3753.38840,0.74846
3751.45963,0.74920
3749.53086,0.75298
3747.60209,0.75200
3745.67332,0.75012
3743.74455,0.75333
3741.81578,0.75443
3739.88701,0.75054
3737.95823,0.74675
3736.02946,0.74705
3734.10069,0.75068
3732.17192,0.75275
3730.24315,0.75153
3728.31438,0.74891
3726.38561,0.74761
3724.45684,0.74810
3722.52807,0.74869
3720.59930,0.74904
3718.67052,0.74878
3716.74175,0.74715
3714.81298,0.74435
3712.88421,0.74304
3710.95544,0.74601
3709.02667,0.74889
3707.09790,0.74823
3705.16913,0.74585
3703.24036,0.74453
3701.31159,0.74569
3699.38281,0.74658
3697.45404,0.74583
3695.52527,0.74453
3693.59650,0.74280
3691.66773,0.74170
3689.73896,0.74424
3687.81019,0.74856
3685.88142,0.74913
3683.95265,0.74712
3682.02388,0.74516
3680.09510,0.74341
3678.16633,0.74136
3676.23756,0.74234
3674.30879,0.74600
3672.38002,0.74521
3670.45125,0.74439
3668.52248,0.74680
3666.59371,0.74678
3664.66494,0.74477
3662.73617,0.74351
3660.80739,0.74269
3658.87862,0.74159
3656.94985,0.74193
3655.02108,0.74290
3653.09231,0.74083
3651.16354,0.73845
3649.23477,0.74200
3647.30600,0.74758
3645.37723,0.74812
3643.44845,0.74625
3641.51968,0.74506
3639.59091,0.74498
3637.66214,0.74500
3635.73337,0.74494
3633.80460,0.74468
3631.87583,0.74342
3629.94706,0.74412
3628.01829,0.74984
3626.08952,0.75255
3624.16074,0.75074
3622.23197,0.74869
3620.30320,0.74909
3618.37443,0.75219
3616.44566,0.75388
3614.51689,0.75394
3612.58812,0.75474
3610.65935,0.75574
3608.73058,0.75738
3606.80181,0.75983
3604.87303,0.76064
3602.94426,0.76026
3601.01549,0.76094
3599.08672,0.76236
3597.15795,0.76337
3595.22918,0.76483
3593.30041,0.76653
3591.37164,0.76650
3589.44287,0.76608
3587.51410,0.76889
3585.58532,0.77264
3583.65655,0.77345
3581.72778,0.77318
3579.79901,0.77365
3577.87024,0.77463
3575.94147,0.77566
3574.01270,0.77654
3572.08393,0.77659
3570.15516,0.77582
3568.22639,0.77666
3566.29761,0.78043
3564.36884,0.78289
3562.44007,0.78290
3560.51130,0.78292
3558.58253,0.78348
3556.65376,0.78382
3554.72499,0.78405
3552.79622,0.78498
3550.86745,0.78604
3548.93867,0.78627
3547.00990,0.78689
3545.08113,0.78870
3543.15236,0.79016
3541.22359,0.79052
3539.29482,0.79059
3537.36605,0.79120
3535.43728,0.79229
3533.50851,0.79300
3531.57974,0.79328
3529.65096,0.79391
3527.72219,0.79505
3525.79342,0.79622
3523.86465,0.79738
3521.93588,0.79853
3520.00711,0.79928
3518.07834,0.79987
3516.14957,0.80058
3514.22080,0.80120
3512.29203,0.80171
3510.36325,0.80256
3508.43448,0.80365
3506.50571,0.80421
3504.57694,0.80468
3502.64817,0.80586
3500.71940,0.80694
3498.79063,0.80734
3496.86186,0.80776
3494.93309,0.80850
3493.00432,0.80912
3491.07554,0.80952
3489.14677,0.81007
3487.21800,0.81080
3485.28923,0.81130
3483.36046,0.81169
3481.43169,0.81247
3479.50292,0.81332
3477.57415,0.81374
3475.64538,0.81411
3473.71661,0.81466
3471.78783,0.81523
3469.85906,0.81573
3467.93029,0.81626
3466.00152,0.81677
3464.07275,0.81722
3462.14398,0.81775
3460.21521,0.81828
3458.28644,0.81867
3456.35767,0.81900
3454.42889,0.81934
3452.50012,0.81956
3450.57135,0.81956
3448.64258,0.81969
3446.71381,0.82023
3444.78504,0.82061
3442.85627,0.82054
3440.92750,0.82039
3438.99873,0.82022
3437.06996,0.81995
3435.14118,0.81960
3433.21241,0.81918
3431.28364,0.81871
3429.35487,0.81816
3427.42610,0.81745
3425.49733,0.81656
3423.56856,0.81560
3421.63979,0.81477
3419.71102,0.81404
3417.78225,0.81311
3415.85347,0.81197
3413.92470,0.81080
3411.99593,0.80961
3410.06716,0.80837
3408.13839,0.80712
3406.20962,0.80583
3404.28085,0.80448
3402.35208,0.80310
3400.42331,0.80167
3398.49454,0.80023
3396.56576,0.79880
3394.63699,0.79730
3392.70822,0.79579
3390.77945,0.79425
3388.85068,0.79253
3386.92191,0.79070
3384.99314,0.78893
3383.06437,0.78713
3381.13560,0.78519
3379.20683,0.78311
3377.27805,0.78096
3375.34928,0.77875
3373.42051,0.77643
3371.49174,0.77404
3369.56297,0.77162
3367.63420,0.76922
3365.70543,0.76686
3363.77666,0.76450
3361.84789,0.76212
3359.91912,0.75976
3357.99034,0.75744
3356.06157,0.75517
3354.13280,0.75295
3352.20403,0.75079
3350.27526,0.74871
3348.34649,0.74667
3346.41772,0.74466
3344.48895,0.74267
3342.56018,0.74075
3340.63140,0.73886
3338.70263,0.73700
3336.77386,0.73523
3334.84509,0.73357
3332.91632,0.73191
3330.98755,0.73021
3329.05878,0.72853
3327.13001,0.72693
3325.20124,0.72542
3323.27247,0.72399
3321.34369,0.72257
3319.41492,0.72115
3317.48615,0.71974
3315.55738,0.71834
3313.62861,0.71701
3311.69984,0.71573
3309.77107,0.71451
3307.84230,0.71334
3305.91353,0.71219
3303.98476,0.71105
3302.05598,0.70996
3300.12721,0.70890
3298.19844,0.70786
3296.26967,0.70685
3294.34090,0.70586
3292.41213,0.70494
3290.48336,0.70411
3288.55459,0.70329
3286.62582,0.70244
3284.69705,0.70159
3282.76827,0.70078
3280.83950,0.70000
3278.91073,0.69921
3276.98196,0.69841
3275.05319,0.69767
3273.12442,0.69695
3271.19565,0.69621
3269.26688,0.69544
3267.33811,0.69470
3265.40934,0.69401
3263.48056,0.69330
3261.55179,0.69254
3259.62302,0.69176
3257.69425,0.69097
3255.76548,0.69020
3253.83671,0.68947
3251.90794,0.68871
3249.97917,0.68782
3248.05040,0.68685
3246.12162,0.68597
3244.19285,0.68520
3242.26408,0.68438
3240.33531,0.68348
3238.40654,0.68256
3236.47777,0.68164
3234.54900,0.68072
3232.62023,0.67983
3230.69146,0.67894
3228.76269,0.67805
3226.83391,0.67718
3224.90514,0.67630
3222.97637,0.67539
3221.04760,0.67451
3219.11883,0.67368
3217.19006,0.67283
3215.26129,0.67196
3213.33252,0.67113
3211.40375,0.67031
3209.47498,0.66948
3207.54620,0.66866
3205.61743,0.66780
3203.68866,0.66693
3201.75989,0.66604
3199.83112,0.66515
3197.90235,0.66433
3195.97358,0.66353
3194.04481,0.66270
3192.11604,0.66183
3190.18727,0.66096
3188.25849,0.66012
3186.32972,0.65933
3184.40095,0.65858
3182.47218,0.65780
3180.54341,0.65698
3178.61464,0.65622
3176.68587,0.65553
3174.75710,0.65481
3172.82833,0.65405
3170.89956,0.65329
3168.97078,0.65256
3167.04201,0.65185
3165.11324,0.65116
3163.18447,0.65046
3161.25570,0.64975
3159.32693,0.64905
3157.39816,0.64835
3155.46939,0.64766
3153.54062,0.64697
3151.61185,0.64632
3149.68307,0.64572
3147.75430,0.64511
3145.82553,0.64446
3143.89676,0.64380
3141.96799,0.64313
3140.03922,0.64247
3138.11045,0.64186
3136.18168,0.64126
3134.25291,0.64066
3132.32413,0.64009
3130.39536,0.63950
3128.46659,0.63888
3126.53782,0.63830
3124.60905,0.63769
3122.68028,0.63704
3120.75151,0.63639
3118.82274,0.63575
3116.89397,0.63518
3114.96520,0.63467
3113.03642,0.63414
3111.10765,0.63354
3109.17888,0.63295
3107.25011,0.63240
3105.32134,0.63184
3103.39257,0.63122
3101.46380,0.63063
3099.53503,0.63008
3097.60626,0.62953
3095.67749,0.62899
3093.74871,0.62844
3091.81994,0.62782
3089.89117,0.62721
3087.96240,0.62662
3086.03363,0.62603
3084.10486,0.62542
3082.17609,0.62482
3080.24732,0.62426
3078.31855,0.62377
3076.38978,0.62332
3074.46100,0.62283
3072.53223,0.62228
3070.60346,0.62168
3068.67469,0.62106
3066.74592,0.62055
3064.81715,0.62012
3062.88838,0.61967
3060.95961,0.61913
3059.03084,0.61854
3057.10207,0.61801
3055.17329,0.61751
3053.24452,0.61697
3051.31575,0.61640
3049.38698,0.61588
3047.45821,0.61540
3045.52944,0.61487
3043.60067,0.61432
3041.67190,0.61381
3039.74313,0.61333
3037.81435,0.61283
3035.88558,0.61230
3033.95681,0.61179
3032.02804,0.61137
3030.09927,0.61099
3028.17050,0.61053
3026.24173,0.61001
3024.31296,0.60951
3022.38419,0.60903
3020.45542,0.60852
3018.52664,0.60802
3016.59787,0.60755
3014.66910,0.60710
3012.74033,0.60668
3010.81156,0.60632
3008.88279,0.60594
3006.95402,0.60551
3005.02525,0.60505
3003.09648,0.60462
3001.16771,0.60418
2999.23893,0.60371
2997.31016,0.60326
2995.38139,0.60284
2993.45262,0.60244
2991.52385,0.60206
2989.59508,0.60173
2987.66631,0.60141
2985.73754,0.60110
2983.80877,0.60075
2981.88000,0.60042
2979.95122,0.60015
2978.02245,0.59992
2976.09368,0.59972
2974.16491,0.59960
2972.23614,0.59957
2970.30737,0.59959
2968.37860,0.59960
2966.44983,0.59959
2964.52106,0.59953
2962.59229,0.59940
2960.66351,0.59916
2958.73474,0.59878
2956.80597,0.59829
2954.87720,0.59770
2952.94843,0.59709
2951.01966,0.59655
2949.09089,0.59609
2947.16212,0.59572
2945.23335,0.59549
2943.30457,0.59544
2941.37580,0.59557
2939.44703,0.59584
2937.51826,0.59622
2935.58949,0.59670
2933.66072,0.59722
2931.73195,0.59773
2929.80318,0.59823
2927.87441,0.59868
2925.94564,0.59900
2924.01686,0.59912
2922.08809,0.59896
2920.15932,0.59835
2918.23055,0.59709
2916.30178,0.59522
2914.37301,0.59305
2912.44424,0.59100
2910.51547,0.58932
2908.58670,0.58799
2906.65793,0.58688
2904.72915,0.58590
2902.80038,0.58501
2900.87161,0.58419
2898.94284,0.58340
2897.01407,0.58264
2895.08530,0.58191
2893.15653,0.58121
2891.22776,0.58055
2889.29899,0.57992
2887.37022,0.57933
2885.44144,0.57879
2883.51267,0.57831
2881.58390,0.57789
2879.65513,0.57749
2877.72636,0.57708
2875.79759,0.57665
2873.86882,0.57623
2871.94005,0.57586
2870.01128,0.57552
2868.08251,0.57522
2866.15373,0.57499
2864.22496,0.57488
2862.29619,0.57491
2860.36742,0.57512
2858.43865,0.57545
2856.50988,0.57573
2854.58111,0.57573
2852.65234,0.57530
2850.72357,0.57435
2848.79480,0.57292
2846.86602,0.57128
2844.93725,0.56975
2843.00848,0.56845
2841.07971,0.56735
2839.15094,0.56642
2837.22217,0.56562
2835.29340,0.56489
2833.36463,0.56421
2831.43586,0.56356
2829.50708,0.56294
2827.57831,0.56233
2825.64954,0.56176
2823.72077,0.56122
2821.79200,0.56072
2819.86323,0.56022
2817.93446,0.55971
2816.00569,0.55921
2814.07692,0.55872
2812.14815,0.55823
2810.21937,0.55776
2808.29060,0.55729
2806.36183,0.55681
2804.43306,0.55633
2802.50429,0.55586
2800.57552,0.55538
2798.64675,0.55490
2796.71798,0.55443
2794.78921,0.55397
2792.86044,0.55351
2790.93166,0.55303
2789.00289,0.55255
2787.07412,0.55209
2785.14535,0.55163
2783.21658,0.55117
2781.28781,0.55072
2779.35904,0.55026
2777.43027,0.54978
2775.50150,0.54931
2773.57273,0.54886
2771.64395,0.54842
2769.71518,0.54798
2767.78641,0.54754
2765.85764,0.54709
2763.92887,0.54663
2762.00010,0.54617
2760.07133,0.54573
2758.14256,0.54528
2756.21379,0.54482
2754.28502,0.54437
2752.35624,0.54393
2750.42747,0.54349
2748.49870,0.54304
2746.56993,0.54258
2744.64116,0.54213
2742.71239,0.54168
2740.78362,0.54124
2738.85485,0.54080
2736.92608,0.54036
2734.99730,0.53992
2733.06853,0.53947
2731.13976,0.53902
2729.21099,0.53856
2727.28222,0.53810
2725.35345,0.53765
2723.42468,0.53721
2721.49591,0.53676
2719.56714,0.53631
2717.63837,0.53586
2715.70959,0.53541
2713.78082,0.53495
2711.85205,0.53451
2709.92328,0.53406
2707.99451,0.53361
2706.06574,0.53316
2704.13697,0.53272
2702.20820,0.53227
2700.27943,0.53182
2698.35066,0.53136
2696.42188,0.53092
2694.49311,0.53048
2692.56434,0.53004
2690.63557,0.52960
2688.70680,0.52915
2686.77803,0.52870
2684.84926,0.52825
2682.92049,0.52781
2680.99172,0.52735
2679.06295,0.52690
2677.13417,0.52647
2675.20540,0.52605
2673.27663,0.52561
2671.34786,0.52515
2669.41909,0.52470
2667.49032,0.52425
2665.56155,0.52381
2663.63278,0.52337
2661.70401,0.52293
2659.77524,0.52247
2657.84646,0.52202
2655.91769,0.52158
2653.98892,0.52114
2652.06015,0.52069
2650.13138,0.52024
2648.20261,0.51980
2646.27384,0.51935
2644.34507,0.51891
2642.41630,0.51848
2640.48752,0.51803
2638.55875,0.51757
2636.62998,0.51712
2634.70121,0.51667
2632.77244,0.51623
2630.84367,0.51578
2628.91490,0.51534
2626.98613,0.51488
2625.05736,0.51444
2623.12859,0.51400
2621.19981,0.51357
2619.27104,0.51313
2617.34227,0.51268
2615.41350,0.51223
2613.48473,0.51177
2611.55596,0.51132
2609.62719,0.51088
2607.69842,0.51045
2605.76965,0.51001
2603.84088,0.50956
2601.91210,0.50911
2599.98333,0.50867
2598.05456,0.50823
2596.12579,0.50780
2594.19702,0.50736
2592.26825,0.50692
2590.33948,0.50647
2588.41071,0.50603
2586.48194,0.50558
2584.55317,0.50514
2582.62439,0.50470
2580.69562,0.50426
2578.76685,0.50382
2576.83808,0.50339
2574.90931,0.50295
2572.98054,0.50250
2571.05177,0.50205
2569.12300,0.50161
2567.19423,0.50117
2565.26546,0.50072
2563.33668,0.50028
2561.40791,0.49984
2559.47914,0.49941
2557.55037,0.49898
2555.62160,0.49854
2553.69283,0.49810
2551.76406,0.49765
2549.83529,0.49720
2547.90652,0.49676
2545.97775,0.49633
2544.04897,0.49590
2542.12020,0.49546
2540.19143,0.49503
2538.26266,0.49460
2536.33389,0.49416
2534.40512,0.49372
2532.47635,0.49328
2530.54758,0.49284
2528.61881,0.49240
2526.69003,0.49196
2524.76126,0.49153
2522.83249,0.49109
2520.90372,0.49065
2518.97495,0.49021
2517.04618,0.48978
2515.11741,0.48934
2513.18864,0.48890
2511.25987,0.48846
2509.33110,0.48802
2507.40232,0.48758
2505.47355,0.48714
2503.54478,0.48669
2501.61601,0.48625
2499.68724,0.48581
2497.75847,0.48538
2495.82970,0.48494
2493.90093,0.48450
2491.97216,0.48408
2490.04339,0.48365
2488.11461,0.48320
2486.18584,0.48275
2484.25707,0.48231
2482.32830,0.48187
2480.39953,0.48144
2478.47076,0.48101
2476.54199,0.48057
2474.61322,0.48014
2472.68445,0.47970
2470.75568,0.47927
2468.82690,0.47884
2466.89813,0.47841
2464.96936,0.47798
2463.04059,0.47756
2461.11182,0.47713
2459.18305,0.47668
2457.25428,0.47624
2455.32551,0.47579
2453.39674,0.47536
2451.46797,0.47493
2449.53919,0.47450
2447.61042,0.47406
2445.68165,0.47363
2443.75288,0.47319
2441.82411,0.47276
2439.89534,0.47232
2437.96657,0.47189
2436.03780,0.47146
2434.10903,0.47103
2432.18025,0.47060
2430.25148,0.47017
2428.32271,0.46975
2426.39394,0.46933
2424.46517,0.46890
2422.53640,0.46846
2420.60763,0.46802
2418.67886,0.46758
2416.75009,0.46714
2414.82132,0.46670
2412.89254,0.46628
2410.96377,0.46585
2409.03500,0.46542
2407.10623,0.46499
2405.17746,0.46456
2403.24869,0.46413
2401.31992,0.46369
2399.39115,0.46326
2397.46238,0.46283
2395.53361,0.46240
2393.60483,0.46197
2391.67606,0.46153
2389.74729,0.46106
2387.81852,0.46053
2385.88975,0.45990
2383.96098,0.45921
2382.03221,0.45847
2380.10344,0.45775
2378.17467,0.45708
2376.24590,0.45646
2374.31712,0.45589
2372.38835,0.45536
2370.45958,0.45486
2368.53081,0.45442
2366.60204,0.45407
2364.67327,0.45382
2362.74450,0.45367
2360.81573,0.45365
2358.88696,0.45379
2356.95819,0.45404
2355.02941,0.45436
2353.10064,0.45460
2351.17187,0.45406
2349.24310,0.45244
2347.31433,0.45052
2345.38556,0.44951
2343.45679,0.44971
2341.52802,0.44993
2339.59925,0.44973
2337.67048,0.44940
2335.74170,0.44900
2333.81293,0.44853
2331.88416,0.44815
2329.95539,0.44794
2328.02662,0.44769
2326.09785,0.44726
2324.16908,0.44686
2322.24031,0.44663
2320.31154,0.44643
2318.38276,0.44605
2316.45399,0.44548
2314.52522,0.44490
2312.59645,0.44445
2310.66768,0.44409
2308.73891,0.44373
2306.81014,0.44331
2304.88137,0.44284
2302.95260,0.44233
2301.02383,0.44185
2299.09505,0.44142
2297.16628,0.44100
2295.23751,0.44059
2293.30874,0.44017
2291.37997,0.43974
2289.45120,0.43932
2287.52243,0.43889
2285.59366,0.43845
2283.66489,0.43798
2281.73612,0.43751
2279.80734,0.43708
2277.87857,0.43667
2275.94980,0.43626
2274.02103,0.43586
2272.09226,0.43545
2270.16349,0.43504
2268.23472,0.43462
2266.30595,0.43420
2264.37718,0.43379
2262.44841,0.43339
2260.51963,0.43298
2258.59086,0.43257
2256.66209,0.43216
2254.73332,0.43176
2252.80455,0.43135
2250.87578,0.43094
2248.94701,0.43053
2247.01824,0.43012
2245.08947,0.42971
2243.16070,0.42929
2241.23192,0.42887
2239.30315,0.42846
2237.37438,0.42805
2235.44561,0.42766
2233.51684,0.42726
2231.58807,0.42685
2229.65930,0.42645
2227.73053,0.42605
2225.80176,0.42564
2223.87298,0.42523
2221.94421,0.42483
2220.01544,0.42444
2218.08667,0.42405
2216.15790,0.42365
2214.22913,0.42326
2212.30036,0.42287
2210.37159,0.42246
2208.44282,0.42206
2206.51405,0.42167
2204.58527,0.42129
2202.65650,0.42091
2200.72773,0.42053
2198.79896,0.42014
2196.87019,0.41977
2194.94142,0.41939
2193.01265,0.41901
2191.08388,0.41863
2189.15511,0.41824
2187.22634,0.41787
2185.29756,0.41749
2183.36879,0.41713
2181.44002,0.41677
2179.51125,0.41641
2177.58248,0.41604
2175.65371,0.41567
2173.72494,0.41531
2171.79617,0.41496
2169.86740,0.41460
2167.93863,0.41423
2166.00985,0.41385
2164.08108,0.41349
2162.15231,0.41313
2160.22354,0.41279
2158.29477,0.41245
2156.36600,0.41210
2154.43723,0.41176
2152.50846,0.41141
2150.57969,0.41106
2148.65092,0.41072
2146.72214,0.41038
2144.79337,0.41003
2142.86460,0.40969
2140.93583,0.40935
2139.00706,0.40901
2137.07829,0.40868
2135.14952,0.40835
2133.22075,0.40801
2131.29198,0.40767
2129.36320,0.40735
2127.43443,0.40703
2125.50566,0.40671
2123.57689,0.40638
2121.64812,0.40605
2119.71935,0.40573
2117.79058,0.40541
2115.86181,0.40508
2113.93304,0.40477
2112.00427,0.40446
2110.07549,0.40415
2108.14672,0.40383
2106.21795,0.40352
2104.28918,0.40320
2102.36041,0.40289
2100.43164,0.40257
2098.50287,0.40226
2096.57410,0.40195
2094.64533,0.40165
2092.71656,0.40133
2090.78778,0.40101
2088.85901,0.40072
2086.93024,0.40042
2085.00147,0.40011
2083.07270,0.39980
2081.14393,0.39951
2079.21516,0.39922
2077.28639,0.39892
2075.35762,0.39860
2073.42885,0.39828
2071.50007,0.39797
2069.57130,0.39765
2067.64253,0.39731
2065.71376,0.39700
2063.78499,0.39671
2061.85622,0.39640
2059.92745,0.39608
2057.99868,0.39577
2056.06991,0.39546
2054.14114,0.39515
2052.21236,0.39484
2050.28359,0.39452
2048.35482,0.39420
2046.42605,0.39387
2044.49728,0.39354
2042.56851,0.39322
2040.63974,0.39293
2038.71097,0.39262
2036.78220,0.39229
2034.85343,0.39197
2032.92465,0.39165
2030.99588,0.39133
2029.06711,0.39101
2027.13834,0.39070
2025.20957,0.39037
2023.28080,0.39003
2021.35203,0.38968
2019.42326,0.38932
2017.49449,0.38903
2015.56571,0.38878
2013.63694,0.38846
2011.70817,0.38809
2009.77940,0.38775
2007.85063,0.38742
2005.92186,0.38709
2003.99309,0.38676
2002.06432,0.38642
2000.13555,0.38609
1998.20678,0.38578
1996.27800,0.38540
1994.34923,0.38497
1992.42046,0.38466
1990.49169,0.38446
1988.56292,0.38418
1986.63415,0.38385
1984.70538,0.38351
1982.77661,0.38317
1980.84784,0.38285
1978.91907,0.38254
1976.99029,0.38224
1975.06152,0.38194
1973.13275,0.38163
1971.20398,0.38129
1969.27521,0.38093
1967.34644,0.38068
1965.41767,0.38047
1963.48890,0.38019
1961.56013,0.37986
1959.63136,0.37959
1957.70258,0.37931
1955.77381,0.37902
1953.84504,0.37873
1951.91627,0.37845
1949.98750,0.37816
1948.05873,0.37785
1946.12996,0.37749
1944.20119,0.37717
1942.27242,0.37705
1940.34365,0.37693
1938.41487,0.37663
1936.48610,0.37628
1934.55733,0.37599
1932.62856,0.37570
1930.69979,0.37541
1928.77102,0.37511
1926.84225,0.37474
1924.91348,0.37435
1922.98471,0.37408
1921.05593,0.37379
1919.12716,0.37348
1917.19839,0.37334
1915.26962,0.37313
1913.34085,0.37270
1911.41208,0.37230
1909.48331,0.37204
1907.55454,0.37184
1905.62577,0.37154
1903.69700,0.37120
1901.76822,0.37087
1899.83945,0.37051
1897.91068,0.37011
1895.98191,0.36976
1894.05314,0.36942
1892.12437,0.36898
1890.19560,0.36861
1888.26683,0.36839
1886.33806,0.36804
1884.40929,0.36757
1882.48051,0.36714
1880.55174,0.36672
1878.62297,0.36629
1876.69420,0.36586
1874.76543,0.36539
1872.83666,0.36476
1870.90789,0.36411
1868.97912,0.36385
1867.05035,0.36385
1865.12158,0.36353
1863.19280,0.36301
1861.26403,0.36254
1859.33526,0.36217
1857.40649,0.36185
1855.47772,0.36152
1853.54895,0.36119
1851.62018,0.36084
1849.69141,0.36043
1847.76264,0.35994
1845.83387,0.35957
1843.90509,0.35968
1841.97632,0.35974
1840.04755,0.35932
1838.11878,0.35886
1836.19001,0.35857
1834.26124,0.35817
1832.33247,0.35763
1830.40370,0.35736
1828.47493,0.35732
1826.54615,0.35708
1824.61738,0.35688
1822.68861,0.35673
1820.75984,0.35638
1818.83107,0.35603
1816.90230,0.35577
1814.97353,0.35547
1813.04476,0.35512
1811.11599,0.35495
1809.18722,0.35491
1807.25844,0.35474
1805.32967,0.35442
1803.40090,0.35408
1801.47213,0.35395
1799.54336,0.35402
1797.61459,0.35391
1795.68582,0.35350
1793.75705,0.35324
1791.82828,0.35359
1789.89951,0.35388
1787.97073,0.35361
1786.04196,0.35330
1784.11319,0.35320
1782.18442,0.35312
1780.25565,0.35310
1778.32688,0.35302
1776.39811,0.35263
1774.46934,0.35220
1772.54057,0.35233
1770.61180,0.35277
1768.68302,0.35287
1766.75425,0.35273
1764.82548,0.35238
1762.89671,0.35215
1760.96794,0.35229
1759.03917,0.35233
1757.11040,0.35232
1755.18163,0.35229
1753.25286,0.35199
1751.32409,0.35192
1749.39531,0.35242
1747.46654,0.35283
1745.53777,0.35291
1743.60900,0.35288
1741.68023,0.35295
1739.75146,0.35319
1737.82269,0.35310
1735.89392,0.35270
1733.96515,0.35312
1732.03638,0.35394
1730.10760,0.35404
1728.17883,0.35397
1726.25006,0.35389
1724.32129,0.35387
1722.39252,0.35377
1720.46375,0.35338
1718.53498,0.35333
1716.60621,0.35432
1714.67744,0.35516
1712.74866,0.35525
1710.81989,0.35506
1708.89112,0.35478
1706.96235,0.35472
1705.03358,0.35489
1703.10481,0.35471
1701.17604,0.35471
1699.24727,0.35554
1697.31850,0.35627
1695.38973,0.35703
1693.46095,0.35749
1691.53218,0.35739
1689.60341,0.35742
1687.67464,0.35741
1685.74587,0.35756
1683.81710,0.35914
1681.88833,0.36062
1679.95956,0.36092
1678.03079,0.36098
1676.10202,0.36153
1674.17324,0.36253
1672.24447,0.36316
1670.31570,0.36405
1668.38693,0.36567
1666.45816,0.36665
1664.52939,0.36729
1662.60062,0.36883
1660.67185,0.37075
1658.74308,0.37192
1656.81431,0.37232
1654.88553,0.37303
1652.95676,0.37664
1651.02799,0.37963
1649.09922,0.38026
1647.17045,0.38195
1645.24168,0.38469
1643.31291,0.38612
1641.38414,0.38678
1639.45537,0.38721
1637.52660,0.38774
1635.59782,0.38935
1633.66905,0.39081
1631.74028,0.39090
1629.81151,0.39064
1627.88274,0.39052
1625.95397,0.39018
1624.02520,0.38959
1622.09643,0.38893
1620.16766,0.38792
1618.23888,0.38657
1616.31011,0.38515
1614.38134,0.38355
1612.45257,0.38166
1610.52380,0.37976
1608.59503,0.37807
1606.66626,0.37654
1604.73749,0.37507
1602.80872,0.37366
1600.87995,0.37235
1598.95117,0.37111
1597.02240,0.36992
1595.09363,0.36884
1593.16486,0.36786
1591.23609,0.36693
1589.30732,0.36606
1587.37855,0.36528
1585.44978,0.36456
1583.52101,0.36389
1581.59224,0.36320
1579.66346,0.36239
1577.73469,0.36170
1575.80592,0.36165
1573.87715,0.36151
1571.94838,0.36085
1570.01961,0.36048
1568.09084,0.36054
1566.16207,0.36037
1564.23330,0.35992
1562.30453,0.35916
1560.37575,0.35852
1558.44698,0.35949
1556.51821,0.36036
1554.58944,0.36018
1552.66067,0.35996
1550.73190,0.35986
1548.80313,0.35978
1546.87436,0.35950
1544.94559,0.35910
1543.01682,0.35885
1541.08804,0.35925
1539.15927,0.36053
1537.23050,0.36079
1535.30173,0.36040
1533.37296,0.36055
1531.44419,0.36098
1529.51542,0.36093
1527.58665,0.36084
1525.65788,0.36097
1523.72910,0.36101
1521.80033,0.36138
1519.87156,0.36199
1517.94279,0.36231
1516.01402,0.36265
1514.08525,0.36285
1512.15648,0.36271
1510.22771,0.36233
1508.29894,0.36231
1506.37017,0.36378
1504.44139,0.36484
1502.51262,0.36472
1500.58385,0.36450
1498.65508,0.36473
1496.72631,0.36550
1494.79754,0.36613
1492.86877,0.36616
1490.94000,0.36630
1489.01123,0.36716
1487.08246,0.36812
1485.15368,0.36867
1483.22491,0.36910
1481.29614,0.36966
1479.36737,0.37025
1477.43860,0.37073
1475.50983,0.37134
1473.58106,0.37254
1471.65229,0.37430
1469.72352,0.37537
1467.79475,0.37573
1465.86597,0.37626
1463.93720,0.37716
1462.00843,0.37760
1460.07966,0.37752
1458.15089,0.37804
1456.22212,0.37974
1454.29335,0.38073
1452.36458,0.38100
1450.43581,0.38130
1448.50704,0.38191
1446.57826,0.38274
1444.64949,0.38347
1442.72072,0.38408
1440.79195,0.38459
1438.86318,0.38505
1436.93441,0.38606
1435.00564,0.38734
1433.07687,0.38803
1431.14810,0.38865
1429.21933,0.38959
1427.29055,0.39046
1425.36178,0.39121
1423.43301,0.39202
1421.50424,0.39275
1419.57547,0.39379
1417.64670,0.39531
1415.71793,0.39640
1413.78916,0.39716
1411.86039,0.39804
1409.93161,0.39903
1408.00284,0.39996
1406.07407,0.40096
1404.14530,0.40212
1402.21653,0.40304
1400.28776,0.40379
1398.35899,0.40469
1396.43022,0.40568
1394.50145,0.40681
1392.57268,0.40787
1390.64390,0.40868
1388.71513,0.40980
1386.78636,0.41163
1384.85759,0.41332
1382.92882,0.41427
1381.00005,0.41490
1379.07128,0.41560
1377.14251,0.41640
1375.21374,0.41734
1373.28497,0.41849
1371.35619,0.41954
1369.42742,0.42051
1367.49865,0.42155
1365.56988,0.42253
1363.64111,0.42364
1361.71234,0.42508
1359.78357,0.42644
1357.85480,0.42756
1355.92603,0.42873
1353.99726,0.42999
1352.06848,0.43128
1350.13971,0.43259
1348.21094,0.43393
1346.28217,0.43528
1344.35340,0.43657
1342.42463,0.43779
1340.49586,0.43917
1338.56709,0.44082
1336.63832,0.44247
1334.70955,0.44398
1332.78077,0.44547
1330.85200,0.44702
1328.92323,0.44863
1326.99446,0.45027
1325.06569,0.45195
1323.13692,0.45363
1321.20815,0.45533
1319.27938,0.45711
1317.35061,0.45894
1315.42183,0.46071
1313.49306,0.46248
1311.56429,0.46428
1309.63552,0.46607
1307.70675,0.46787
1305.77798,0.46974
1303.84921,0.47163
1301.92044,0.47354
1299.99167,0.47548
1298.06290,0.47746
1296.13412,0.47950
1294.20535,0.48159
1292.27658,0.48370
1290.34781,0.48584
1288.41904,0.48804
1286.49027,0.49028
1284.56150,0.49253
1282.63273,0.49481
1280.70396,0.49713
1278.77519,0.49948
1276.84641,0.50187
1274.91764,0.50431
1272.98887,0.50680
1271.06010,0.50937
1269.13133,0.51200
1267.20256,0.51466
1265.27379,0.51738
1263.34502,0.52014
1261.41625,0.52297
1259.48748,0.52586
1257.55870,0.52877
1255.62993,0.53169
1253.70116,0.53467
1251.77239,0.53772
1249.84362,0.54081
1247.91485,0.54395
1245.98608,0.54716
1244.05731,0.55043
1242.12854,0.55380
1240.19977,0.55723
1238.27099,0.56073
1236.34222,0.56430
1234.41345,0.56797
1232.48468,0.57174
1230.55591,0.57562
1228.62714,0.57963
1226.69837,0.58378
1224.76960,0.58810
1222.84083,0.59256
1220.91206,0.59716
1218.98328,0.60194
1217.05451,0.60687
1215.12574,0.61197
1213.19697,0.61722
1211.26820,0.62265
1209.33943,0.62823
1207.41066,0.63397
1205.48189,0.63984
1203.55312,0.64577
1201.62434,0.65167
1199.69557,0.65749
1197.76680,0.66319
1195.83803,0.66871
1193.90926,0.67418
1191.98049,0.67986
1190.05172,0.68592
1188.12295,0.69244
1186.19418,0.69937
1184.26541,0.70662
1182.33663,0.71412
1180.40786,0.72176
1178.47909,0.72942
1176.55032,0.73704
1174.62155,0.74463
1172.69278,0.75220
1170.76401,0.75979
1168.83524,0.76744
1166.90647,0.77513
1164.97770,0.78273
1163.04892,0.79009
1161.12015,0.79721
1159.19138,0.80420
1157.26261,0.81121
1155.33384,0.81813
1153.40507,0.82475
1151.47630,0.83104
1149.54753,0.83700
1147.61876,0.84263
1145.68999,0.84791
1143.76121,0.85287
1141.83244,0.85754
1139.90367,0.86198
1137.97490,0.86627
1136.04613,0.87057
1134.11736,0.87501
1132.18859,0.87969
1130.25982,0.88472
1128.33105,0.89001
1126.40228,0.89549
1124.47350,0.90120
1122.54473,0.90703
1120.61596,0.91296
1118.68719,0.91904
1116.75842,0.92546
1114.82965,0.93238
1112.90088,0.93997
1110.97211,0.94844
1109.04334,0.95784
1107.11456,0.96819
1105.18579,0.97930
1103.25702,0.99094
1101.32825,1.00287
1099.39948,1.01489
1097.47071,1.02676
1095.54194,1.03815
1093.61317,1.04894
1091.68440,1.05900
1089.75563,1.06830
1087.82685,1.07674
1085.89808,1.08432
1083.96931,1.09115
1082.04054,1.09724
1080.11177,1.10259
1078.18300,1.10693
1076.25423,1.11012
1074.32546,1.11233
1072.39669,1.11376
1070.46792,1.11456
1068.53914,1.11489
1066.61037,1.11486
1064.68160,1.11440
1062.75283,1.11373
1060.82406,1.11296
1058.89529,1.11200
1056.96652,1.11087
1055.03775,1.10953
1053.10898,1.10791
1051.18021,1.10585
1049.25143,1.10334
1047.32266,1.10035
1045.39389,1.09687
1043.46512,1.09297
1041.53635,1.08886
1039.60758,1.08499
1037.67881,1.08154
1035.75004,1.07867
1033.82127,1.07624
1031.89250,1.07377
1029.96372,1.07083
1028.03495,1.06701
1026.10618,1.06220
1024.17741,1.05640
1022.24864,1.04985
1020.31987,1.04274
1018.39110,1.03528
1016.46233,1.02790
1014.53356,1.02094
1012.60478,1.01450
1010.67601,1.00854
1008.74724,1.00323
1006.81847,0.99880
1004.88970,0.99541
1002.96093,0.99311
1001.03216,0.99187
999.10339,0.99151
997.17462,0.99169
995.24585,0.99215
993.31707,0.99263
991.38830,0.99309
989.45953,0.99366
987.53076,0.99455
985.60199,0.99621
983.67322,0.99912
981.74445,1.00370
979.81568,1.01033
977.88691,1.01928
975.95814,1.03067
974.02936,1.04434
972.10059,1.05957
970.17182,1.07529
968.24305,1.09059
966.31428,1.10456
964.38551,1.11652
962.45674,1.12637
960.52797,1.13415
958.59920,1.13992
956.67043,1.14371
954.74165,1.14570
952.81288,1.14615
950.88411,1.14548
948.95534,1.14429
947.02657,1.14324
945.09780,1.14287
943.16903,1.14343
941.24026,1.14467
939.31149,1.14588
937.38272,1.14649
935.45394,1.14617
933.52517,1.14455
931.59640,1.14129
929.66763,1.13627
927.73886,1.12950
925.81009,1.12090
923.88132,1.11034
921.95255,1.09776
920.02378,1.08333
918.09501,1.06779
916.16623,1.05218
914.23746,1.03744
912.30869,1.02466
910.37992,1.01484
908.45115,1.00858
906.52238,1.00614
904.59361,1.00741
902.66484,1.01178
900.73607,1.01836
898.80729,1.02615
896.87852,1.03419
894.94975,1.04161
893.02098,1.04763
891.09221,1.05170
889.16344,1.05354
887.23467,1.05302
885.30590,1.05013
883.37713,1.04484
881.44836,1.03724
879.51958,1.02770
877.59081,1.01656
875.66204,1.00418
873.73327,0.99064
871.80450,0.97596
869.87573,0.96037
867.94696,0.94418
866.01819,0.92746
864.08942,0.91020
862.16065,0.89250
860.23187,0.87450
858.30310,0.85642
856.37433,0.83836
854.44556,0.82042
852.51679,0.80260
850.58802,0.78495
848.65925,0.76763
846.73048,0.75070
844.80171,0.73423
842.87294,0.71837
840.94416,0.70320
839.01539,0.68871
837.08662,0.67484
835.15785,0.66146
833.22908,0.64841
831.30031,0.63548
829.37154,0.62254
827.44277,0.60963
825.51400,0.59687
823.58523,0.58435
821.65645,0.57207
819.72768,0.56015
817.79891,0.54877
815.87014,0.53801
813.94137,0.52794
812.01260,0.51873
810.08383,0.51048
808.15506,0.50321
806.22629,0.49691
804.29751,0.49146
802.36874,0.48665
800.43997,0.48220
798.51120,0.47774
796.58243,0.47301
794.65366,0.46801
792.72489,0.46290
790.79612,0.45793
788.86735,0.45328
786.93858,0.44918
785.00980,0.44573
783.08103,0.44284
781.15226,0.44016
779.22349,0.43723
777.29472,0.43374
775.36595,0.42960
773.43718,0.42490
771.50841,0.41996
769.57964,0.41524
767.65087,0.41119
765.72209,0.40827
763.79332,0.40675
761.86455,0.40647
759.93578,0.40669
758.00701,0.40634
756.07824,0.40462
754.14947,0.40136
752.22070,0.39703
750.29193,0.39256
748.36316,0.38902
746.43438,0.38702
744.50561,0.38660
742.57684,0.38762
740.64807,0.39035
738.71930,0.39534
736.79053,0.40239
734.86176,0.41000
732.93299,0.41632
731.00422,0.42036
729.07545,0.42191
727.14667,0.42050
725.21790,0.41520
723.28913,0.40581
721.36036,0.39316
719.43159,0.37909
717.50282,0.36600
715.57405,0.35488
713.64528,0.34580
711.71651,0.33890
709.78773,0.33416
707.85896,0.33140
705.93019,0.33033
704.00142,0.33070
702.07265,0.33225
700.14388,0.33466
698.21511,0.33771
696.28634,0.34135
694.35757,0.34581
692.42880,0.35152
690.50002,0.35872
688.57125,0.36692
686.64248,0.37509
684.71371,0.38225
682.78494,0.38805
680.85617,0.39282
678.92740,0.39718
676.99863,0.40127
675.06986,0.40449
673.14109,0.40597
671.21231,0.40556
669.28354,0.40287
667.35477,0.39807
665.42600,0.39488
663.49723,0.39313
661.56846,0.39248
659.63969,0.39398
657.71092,0.39832
655.78215,0.40576
653.85338,0.41621
651.92460,0.42921
649.99583,0.44429
648.06706,0.46091
646.13829,0.47811
644.20952,0.49523
642.28075,0.51147
640.35198,0.52578
638.42321,0.53741
636.49444,0.54640
634.56567,0.55345
632.63689,0.55947
630.70812,0.56504
628.77935,0.57003
626.85058,0.57382
624.92181,0.57529
622.99304,0.57330
621.06427,0.56736
619.13550,0.55816
617.20673,0.54755
615.27796,0.53818
613.34918,0.53186
611.42041,0.52864
609.49164,0.52802
607.56287,0.52918
605.63410,0.53146
603.70533,0.53442
601.77656,0.53780
599.84779,0.54171
597.91902,0.54647
595.99024,0.55253
594.06147,0.56021
592.13270,0.56975
590.20393,0.58066
588.27516,0.59195
586.34639,0.60327
584.41762,0.61453
582.48885,0.62562
580.56008,0.63642
578.63131,0.64706
576.70253,0.65828
574.77376,0.67048
572.84499,0.68308
570.91622,0.69524
568.98745,0.70639
567.05868,0.71601
565.12991,0.72405
563.20114,0.73090
561.27237,0.73701
559.34360,0.74286
557.41482,0.74899
555.48605,0.75573
553.55728,0.76282
551.62851,0.77051
549.69974,0.77905
547.77097,0.78857
545.84220,0.79952
543.91343,0.81157
541.98466,0.82334
540.05589,0.83269
538.12711,0.83796
536.19834,0.83930
534.26957,0.83839
532.34080,0.83674
530.41203,0.83566
528.48326,0.83675
526.55449,0.84144
524.62572,0.85068
522.69695,0.86321
520.76818,0.87756
518.83940,0.89302
516.91063,0.90769
514.98186,0.91982
513.05309,0.92892
511.12432,0.93585
509.19555,0.94171
507.26678,0.94670
505.33801,0.95021
503.40924,0.95221
501.48046,0.95278
499.55169,0.95179
497.62292,0.94958
495.69415,0.94595
493.76538,0.94099
491.83661,0.93560
489.90784,0.93054
487.97907,0.92524
486.05030,0.91819
484.12153,0.90915
482.19275,0.89889
480.26398,0.88776
478.33521,0.87626
476.40644,0.86540
474.47767,0.85532
472.54890,0.84529
470.62013,0.83562
468.69136,0.82630
466.76259,0.81602
464.83382,0.80362
462.90504,0.78926
460.97627,0.77429
459.04750,0.75868
457.11873,0.74359
455.18996,0.73197
453.26119,0.72207
451.33242,0.71239
449.40365,0.70421
447.47488,0.69798
445.54611,0.69342
443.61733,0.68983
441.68856,0.68634
439.75979,0.68249
437.83102,0.67807
435.90225,0.67320
433.97348,0.66814
432.04471,0.66294
430.11594,0.65786
428.18717,0.65339
426.25840,0.64986
424.32962,0.64789
422.40085,0.64766
420.47208,0.64954
418.54331,0.65491
416.61454,0.66190
414.68577,0.66860
412.75700,0.67576
410.82823,0.68366
408.89946,0.69222
406.97069,0.70064
405.04191,0.70861
403.11314,0.71581
401.18437,0.72109
399.25560,0.72610
397.32683,0.73598
395.39806,0.74924
393.46929,0.75898
391.54052,0.76368
389.61175,0.76580
387.68297,0.76950
385.75420,0.77489
383.82543,0.77623
381.89666,0.76999
379.96789,0.76112
378.03912,0.75446
376.11035,0.74946
374.18158,0.74016
372.25281,0.72194
370.32404,0.70099
368.39526,0.68587
366.46649,0.68139
364.53772,0.68522
362.60895,0.68781
360.68018,0.67426
358.75141,0.64689
356.82264,0.63033
354.89387,0.62482
352.96510,0.62342
351.03633,0.64297
349.10755,0.67263
